File: Glass FTIR Baseline Share With Sarah 2023/1630_Peaks_Baseline_removed.csv
Wavenumber,WD23MI02,WD33MI03,WD71AMI01,SH01MI11,SH01MI05,WD23MI03A,FI38MI01C,SH01MI12B,CV09EMI05,FI38MI01B,SH01MI12A,OK14MI07,OK14MI12,OK14MI01,WD35MI04A,OK14MI06C,FI45MI02,WD70MI03,Terry3MI03,WD70MI01A,WD35MI02,FI45MI06,WD35MI01,WD07MI01B,FI38MI05A,SH58MI01,SH63MI34,OK17MI05A,FI45MI04A,JFL30AMI12,SH63MI24
1400.09,0.00890504,0.00477517,0.0362671,0.008385,0.0053846,0.0248888,0.00638968,0.00807982,0.00938947,0.00543978,0.011019,0.0112425,0.00374133,0.00513928,0.00760772,0.00135815,0.0129276,0.00855703,0.00620073,0.0127192,0.00794104,0.0123042,0.0133497,0.00558377,0.00665762,0.00552155,0.00898315,0.00204469,0.00924173,0.011934,0.00472347
1415.518,0.00478944,0.00524109,0.0350007,0.00878274,0.00572001,0.0247197,0.00609275,0.00829794,0.00973041,0.00617951,0.00913173,0.0131704,0.00213082,0.00454296,0.00663917,0.00061764,0.0129656,0.00993841,0.00339066,0.0141143,0.00897564,0.0110818,0.0134925,0.00721622,0.00633108,0.00470515,0.00863543,0.00209839,0.010953,0.0103784,0.00558612
1430.946,0.0056193,0.00566071,0.0345602,0.00769774,0.00630487,0.0253321,0.00633393,0.00801904,0.00948957,0.00453314,0.0108187,0.0087933,0.00300137,0.00425101,0.00665158,0.000600476,0.0132676,0.0101301,0.00529386,0.0126642,0.00976827,0.0123102,0.012242,0.00611301,0.00446236,0.00621808,0.00944949,0.00125291,0.0116179,0.0112824,0.00553723
1446.374,0.00713417,0.00476243,0.0351967,0.00962191,0.00722073,0.0262388,0.0060777,0.00924657,0.00930684,0.00603306,0.0109672,0.00918972,0.00402627,0.0068821,0.00751225,0.00131897,0.0124553,0.00911739,0.00573027,0.0131491,0.00789551,0.0122982,0.013229,0.00752557,0.00691379,0.00599716,0.0092483,0.00196464,0.00930881,0.0128703,0.00549659
1461.802,0.00837368,0.00692638,0.0373369,0.00800464,0.00531911,0.0254538,0.00511162,0.0103448,0.0114773,0.00812903,0.010141,0.0116223,0.000164286,0.00558971,0.00662441,0.00161317,0.0123891,0.0105374,0.00448502,0.013097,0.0109255,0.0139092,0.0133002,0.00549254,0.00598136,0.00451841,0.00925496,0.00241725,0.013386,0.0108239,0.0037624
1477.23,0.00361432,0.0100494,0.0432443,0.0115787,0.00582867,0.0293889,0.00536931,0.0102458,0.0149231,0.00490209,0.0094127,0.00572906,0.00110855,0.00722152,0.0110096,0.000948853,0.0157979,0.0144718,0.00485235,0.0124442,0.0148609,0.0186265,0.0118227,0.00624718,0.0034769,0.00329557,0.00917849,0.0017464,0.0185045,0.0150601,0.000460821
1492.658,0.00678086,0.0134762,0.0503806,0.014721,0.0102865,0.040009,0.0050513,0.0163546,0.0187878,0.00787795,0.0107218,0.00889232,0.00139884,0.00789297,0.0129468,9.67958e-05,0.0200817,0.0189609,0.0066392,0.0140722,0.0188456,0.0253588,0.0160427,0.0111925,0.00888117,0.00487273,0.0130771,0.00324226,0.0230484,0.0186035,-0.0036507
1508.086,0.00784355,0.0122876,0.0515146,0.0165645,0.0115255,0.0443159,0.0071052,0.0174723,0.0209508,0.010948,0.00923345,0.00470171,-0.00114567,0.00798236,0.0127769,-0.000841942,0.0240005,0.0224022,0.00642328,0.0136802,0.0200438,0.0281895,0.0161946,0.0121831,0.00820336,0.00644867,0.013424,0.00450603,0.0290621,0.0200409,-0.00555476
1523.514,0.00403923,0.0180625,0.0645068,0.0239787,0.0131171,0.0580413,0.0100595,0.0229017,0.0257458,0.012031,0.0112801,0.0118549,0.00106476,0.00997224,0.0196743,-0.000621404,0.0311792,0.0269506,0.00947717,0.0163469,0.0246268,0.0340614,0.0182256,0.0167094,0.00850529,0.00590286,0.0186635,0.00522608,0.0345389,0.0275956,-0.00490426
1538.942,0.00876608,0.0218044,0.0728782,0.0272059,0.0146581,0.0713575,0.0126674,0.0276137,0.0299174,0.0169611,0.0151341,0.0110707,0.003051,0.0133084,0.0232034,0.00065504,0.038167,0.0318124,0.00788774,0.0208861,0.0308394,0.0447901,0.0263359,0.0175783,0.0122702,0.00912231,0.0211002,0.00569945,0.0396155,0.0306734,-0.00618982
1554.37,0.0137863,0.0259573,0.0936299,0.0364181,0.0217324,0.0940595,0.0173895,0.0327452,0.0364699,0.0226108,0.0220973,0.0170795,0.00358096,0.0172228,0.028644,0.0012709,0.0496615,0.0362327,0.0101386,0.0272102,0.037431,0.0526419,0.0343091,0.0199365,0.0180834,0.00989844,0.0283598,0.00722139,0.0473424,0.0377312,-0.0043748
1569.798,0.0184007,0.0366859,0.124905,0.0473769,0.0295655,0.127241,0.0266536,0.0451236,0.0442531,0.0321769,0.0340204,0.0263823,0.00724763,0.0221068,0.0413892,0.00380932,0.0647632,0.0440178,0.0157252,0.0391877,0.0462184,0.068451,0.0456732,0.027683,0.0211372,0.0152769,0.0359299,0.0103774,0.0615411,0.0512637,0.00249412
1585.226,0.0335361,0.0481508,0.183469,0.0644407,0.040952,0.182636,0.0403867,0.0598004,0.0594134,0.0445303,0.0557015,0.0419183,0.0139793,0.0328945,0.0557058,0.00658621,0.0907725,0.059523,0.0228767,0.0622989,0.0639467,0.097218,0.0730605,0.0376083,0.0333323,0.0263433,0.0487801,0.0136907,0.0833195,0.0697036,0.0134582
1600.654,0.0618283,0.0742088,0.322765,0.110101,0.0643909,0.301384,0.0735743,0.100045,0.0984715,0.0751045,0.104579,0.0887691,0.0252059,0.0513173,0.0895782,0.0126662,0.152947,0.0983417,0.0467872,0.115297,0.100445,0.150963,0.130727,0.0657365,0.0631195,0.0510713,0.0882792,0.0218488,0.133063,0.12197,0.0369716
1616.082,0.127218,0.123121,0.618874,0.196486,0.118677,0.538338,0.142781,0.183664,0.183694,0.135702,0.207483,0.17953,0.0570054,0.0990727,0.160925,0.0260168,0.27881,0.183387,0.0970369,0.233967,0.178188,0.260132,0.261578,0.128746,0.118899,0.114939,0.174052,0.0423157,0.232634,0.237835,0.101034
1631.51,0.20759,0.174692,0.876218,0.286368,0.176233,0.782174,0.216141,0.275286,0.268702,0.197627,0.315874,0.287705,0.0907267,0.144331,0.23013,0.0396778,0.406073,0.272325,0.147715,0.358126,0.263614,0.370377,0.409407,0.193172,0.17869,0.182872,0.262074,0.0638179,0.330598,0.357689,0.173438
1646.938,0.209661,0.173188,0.810326,0.281039,0.164729,0.788509,0.215809,0.272463,0.251205,0.194852,0.302819,0.263535,0.0837124,0.140374,0.226295,0.0367459,0.399445,0.258676,0.135803,0.339699,0.256794,0.365216,0.403007,0.189282,0.172508,0.175669,0.235652,0.0613013,0.323875,0.346353,0.151178
1662.366,0.147856,0.13018,0.557499,0.198638,0.112266,0.592361,0.157123,0.19273,0.169633,0.138758,0.208746,0.169444,0.0520582,0.0977099,0.168007,0.0238333,0.290392,0.177407,0.0887963,0.22726,0.182379,0.268846,0.275049,0.135659,0.119409,0.120718,0.147997,0.0409045,0.238559,0.235033,0.0837701
1677.794,0.0836976,0.0793405,0.307474,0.118131,0.0618601,0.359971,0.0977885,0.110057,0.0952403,0.0814926,0.121764,0.0875566,0.026859,0.055552,0.103045,0.0128719,0.169297,0.100346,0.0470825,0.123856,0.104079,0.165576,0.154879,0.0761524,0.0660291,0.0667617,0.076298,0.022622,0.147853,0.129104,0.0378282
1693.222,0.0418564,0.0483782,0.157212,0.0670605,0.0308322,0.202369,0.0561858,0.0606629,0.0493804,0.0445004,0.0633879,0.0427451,0.0123244,0.0279522,0.0583041,0.00699447,0.0911231,0.0524285,0.023334,0.0629145,0.0544647,0.0932647,0.080235,0.0384662,0.0339921,0.0356254,0.0358161,0.0123106,0.0845277,0.0664672,0.0154082
1708.65,0.0219456,0.0293072,0.0828725,0.0374915,0.0199295,0.11827,0.0354456,0.0318057,0.0268193,0.0255273,0.0347431,0.0231327,0.00399322,0.0149274,0.0378692,0.0047903,0.050068,0.0283621,0.0134047,0.0302145,0.027329,0.0517805,0.0387057,0.0216107,0.0231543,0.0230624,0.0157913,0.00796608,0.0477098,0.0348865,0.0028954
1724.078,0.0133775,0.0187939,0.050337,0.0262038,0.0183353,0.0789646,0.0261842,0.0231784,0.0171468,0.015791,0.0226408,0.0220139,0.00333103,0.0126778,0.025984,0.00429392,0.0294171,0.0173006,0.00780971,0.0157829,0.0142383,0.032393,0.0230199,0.0123458,0.015163,0.014431,0.010135,0.00574987,0.0301703,0.0204088,-0.00172037
1739.506,0.0078545,0.0103234,0.0321599,0.0209509,0.0120662,0.0556937,0.0191232,0.01944,0.0116355,0.0126432,0.0120739,0.0155715,0.00337615,0.00961311,0.0163218,0.00309329,0.0182794,0.011537,0.00497942,0.0118137,0.00742903,0.0218542,0.0159425,0.00834049,0.00789341,0.0131267,0.00586349,0.00318714,0.0222211,0.0127278,0.000747497
1754.934,0.00489933,0.00781794,0.0195778,0.0102152,0.00664087,0.0421582,0.0130255,0.0143343,0.00575158,0.00859694,0.00771576,0.0090697,0.000510299,0.00517074,0.0135041,0.000631377,0.011379,0.00682019,0.00258533,0.0076568,0.00573789,0.0120797,0.00870459,0.00907316,0.00822361,0.0131077,0.00274527,0.000766575,0.015577,0.00747875,0.00252198
1770.362,0.00599781,0.00495917,0.0126934,0.00596081,0.00276085,0.030052,0.0101309,0.0110659,0.0030698,0.00364376,0.00321506,0.00636845,-0.00148087,0.00523077,0.00888059,-6.89942e-05,0.00648461,0.00451608,0.00104711,0.00108524,0.0031253,0.00597869,0.00362434,0.00713933,0.0083423,0.00688827,0.00202683,0.000919093,0.00968909,0.00367488,-0.000710804
1785.79,0.00233624,0.000498487,0.00672379,0.00376079,0.00188474,0.0123778,0.00590439,0.00479497,0.001644,-5.06079e-05,-1.07034e-05,0.00394223,-0.0002917,0.00241051,0.0024399,0.000186846,0.00297588,0.00235604,0.00123242,0.000333343,0.000447572,0.00276126,0.00206339,0.00200958,0.00228792,0.00434986,0.0013179,0.000520095,0.00478148,0.00187672,-0.00321147
1801.218,1.8582e-05,-0.000814335,0.00246966,-0.000796753,0.00257949,-0.0015814,0.000416515,-0.00124697,0.000512643,6.07997e-05,0.00104967,0.00145274,0.000435936,-0.000131966,0.000176156,0.000929851,0.000698894,0.000536707,0.000531188,0.0021583,-1.05319e-05,0.000510295,0.00138031,0.000433375,-0.00224294,0.00137495,0.000885969,-0.000313842,0.000207608,0.00104349,2.13242e-05
1816.646,-0.000631937,0.00103624,-0.00114993,-0.000410942,0.00273043,-0.00400674,-0.00140863,-0.000767821,-0.000466319,-0.000261714,-0.000664772,0.00068955,-0.000584751,-0.000955431,0.00105989,0.00108669,-0.00034837,-0.000435508,-4.6115e-05,-8.77204e-05,0.000444268,-0.0018633,-0.00132097,-0.000746886,-4.05959e-05,-0.00217361,-4.4528e-05,-0.00121922,-0.000988425,-0.000563159,0.00258553
1818.574,-0.000159487,0.000970537,-0.0014064,5.19166e-05,0.00245206,-0.00426467,-0.00125409,-0.000579484,-0.000511791,-0.000162729,-0.00104915,0.000657355,-0.000712849,-0.000795314,0.000894141,0.00108543,-0.000386153,-0.000558063,-0.00024415,-0.000675869,0.000352142,-0.00215912,-0.0015582,-0.00106271,0.000390107,-0.00214458,-0.000369227,-0.00115429,-0.00134437,-0.000638943,0.00251663