File: Glass FTIR Baseline Share With Sarah 2023/CO2_free_baselines_Water_removed_5-19-21.csv
Wavenumber,WD23MI02,WD33MI03,SH55MI02,SH54MI11,SH63MI02,WD71AMI01,SH63MI10,SH01MI11,SH01MI05,SH63MI39,WD23MI03A,FI38MI01C,SH01MI12B,CV09EMI05,FI38MI01B,SH01MI12A,OK14MI07,OK14MI12,AK96MI13,OK14MI01,WD35MI04A,SH63MI43,OK14MI06C,Terry3MI04A,FI45MI02,AK96MI08,WD70MI03,Terry3MI03,JFL19BMI11,WD12MI04A,FI45MI05,WD70MI01A,WD35MI02,WD07MI01A,FI45MI06,OK14MI08,WD70MI01B,WD12MI06,WD35MI01,OK14MI09,WD07MI01B,SH63MI53,FI38MI05A,SH58MI01,SH63MI34,SH01MI21,OK17MI05A,SH63MI22,FI45MI04A,SH63MI27,JFL30AMI12,VS73MI02,SH63MI25,SH63MI31,SH63MI24
1276.666,1.14474,0.809137,0.901339,0.680846,1.64411,1.36309,0.822427,0.911729,0.595285,1.0346,2.14877,0.510849,1.18558,0.614533,0.520746,1.0734,1.70304,0.825643,0.735252,0.892139,0.823824,0.838836,0.405243,0.509925,0.870219,0.661414,0.626974,0.935146,0.926324,0.940512,0.793956,0.758756,0.889702,0.826819,0.87083,0.959792,0.756172,1.07691,0.941017,1.11017,0.947907,0.64279,0.785106,1.15512,1.11597,1.01806,0.563135,0.594477,0.882595,0.779575,0.970741,0.927981,0.881958,1.05484,0.950888
1334.521,0.750899,0.511247,0.484292,0.369998,0.992305,0.860831,0.48345,0.624408,0.370683,0.565474,1.46499,0.234689,0.807317,0.373863,0.263743,0.70934,1.06895,0.514004,0.42399,0.580577,0.536719,0.513714,0.251136,0.23275,0.577562,0.389903,0.40604,0.582777,0.594673,0.599941,0.519652,0.487788,0.622378,0.533402,0.563553,0.568442,0.47985,0.674404,0.644319,0.694878,0.601092,0.452369,0.500606,0.738399,0.673744,0.590278,0.357455,0.324115,0.553556,0.479285,0.598738,0.543443,0.512956,0.636331,0.578295
1392.376,0.605015,0.416457,0.396387,0.292224,0.785881,0.687381,0.381334,0.537242,0.310694,0.465407,1.21364,0.144576,0.665884,0.307694,0.187366,0.602899,0.873297,0.412197,0.344941,0.464191,0.446731,0.409786,0.20962,0.158543,0.471698,0.306332,0.344522,0.484592,0.483941,0.511895,0.421581,0.405228,0.532975,0.441952,0.468916,0.440521,0.397519,0.567106,0.539468,0.575993,0.49411,0.417718,0.412257,0.621598,0.552032,0.497164,0.301044,0.257538,0.461821,0.386375,0.490351,0.423836,0.417751,0.501992,0.46563
1450.231,0.535889,0.385523,0.353662,0.258347,0.666551,0.631374,0.334066,0.505165,0.288069,0.424185,1.1161,0.114145,0.611447,0.282549,0.165952,0.552357,0.782249,0.366552,0.298925,0.409856,0.412883,0.358058,0.191566,0.13,0.436428,0.262012,0.325084,0.441441,0.445272,0.475886,0.383349,0.376151,0.499177,0.40809,0.44008,0.379671,0.37069,0.523755,0.501177,0.525144,0.454883,0.397302,0.382561,0.563587,0.503035,0.449155,0.27965,0.228765,0.435421,0.337428,0.451389,0.37498,0.36935,0.438073,0.408219
1508.086,0.503626,0.367723,0.325472,0.242527,0.615097,0.59975,0.321466,0.491553,0.274572,0.404288,1.07083,0.10977,0.578126,0.258703,0.159635,0.528318,0.740325,0.348636,0.267602,0.381749,0.398874,0.330573,0.18562,0.116257,0.417876,0.248914,0.304688,0.417385,0.424267,0.444253,0.362636,0.365579,0.473457,0.386914,0.419091,0.345647,0.355631,0.487764,0.485626,0.499533,0.43535,0.382853,0.373095,0.537846,0.474529,0.420297,0.26835,0.210763,0.417318,0.328037,0.424992,0.362129,0.341151,0.407602,0.391865
1565.941,0.485801,0.359354,0.314318,0.237202,0.593411,0.579505,0.318091,0.482177,0.268166,0.399898,1.04395,0.1099,0.55822,0.243013,0.153079,0.51573,0.718203,0.339616,0.250709,0.366542,0.39271,0.317242,0.183547,0.110351,0.407051,0.243272,0.292168,0.404084,0.415575,0.425768,0.351006,0.360968,0.455986,0.372614,0.407227,0.335212,0.347984,0.465803,0.477303,0.487327,0.425977,0.37106,0.369693,0.526376,0.458589,0.405519,0.260892,0.203846,0.409435,0.325233,0.410891,0.358783,0.327891,0.392942,0.384616
1623.796,0.479312,0.356606,0.304559,0.230249,0.580251,0.572462,0.313412,0.477143,0.264965,0.387781,1.03988,0.108149,0.552434,0.235278,0.150884,0.503676,0.701613,0.333278,0.237795,0.363545,0.391797,0.306574,0.181964,0.10568,0.405964,0.239826,0.287507,0.394691,0.407226,0.416874,0.346065,0.359215,0.452318,0.364138,0.404563,0.333265,0.347255,0.456997,0.477283,0.478755,0.423279,0.355707,0.368527,0.517683,0.449965,0.389131,0.255244,0.196109,0.408315,0.322037,0.404799,0.357021,0.315143,0.379185,0.374528
1681.651,0.472539,0.353077,0.296118,0.223902,0.568977,0.563711,0.30867,0.471042,0.262194,0.376747,1.03298,0.106045,0.545661,0.227518,0.146705,0.491338,0.684388,0.326572,0.226364,0.359366,0.39017,0.296475,0.180311,0.100595,0.403958,0.236627,0.283252,0.385375,0.398708,0.408516,0.340054,0.357223,0.448053,0.354369,0.400949,0.331736,0.346571,0.448606,0.476702,0.471248,0.420318,0.339946,0.366598,0.509463,0.441384,0.373601,0.249019,0.189532,0.406192,0.319096,0.398676,0.353832,0.303201,0.364963,0.364035
1739.506,0.460365,0.347353,0.303143,0.226413,0.571158,0.544203,0.310583,0.459114,0.259689,0.386278,1.00623,0.10637,0.528713,0.217926,0.131344,0.486461,0.672401,0.320237,0.223846,0.350288,0.386077,0.293557,0.179859,0.0985687,0.392671,0.233889,0.276055,0.377869,0.394301,0.400671,0.332067,0.354797,0.433125,0.341431,0.392531,0.340865,0.341356,0.435909,0.468716,0.467087,0.413514,0.33048,0.363037,0.507693,0.43162,0.371616,0.2412,0.192405,0.402718,0.318498,0.391177,0.355028,0.303462,0.360448,0.360795
1797.361,0.448074,0.340482,0.30535,0.22371,0.570275,0.524802,0.310554,0.444214,0.253563,0.386748,0.980504,0.105848,0.513189,0.206765,0.112207,0.479827,0.656041,0.311154,0.216869,0.344404,0.381006,0.288277,0.177532,0.0935735,0.380842,0.228081,0.2664,0.365951,0.387526,0.389731,0.326041,0.349984,0.417473,0.327471,0.383433,0.352547,0.333505,0.418503,0.45961,0.455128,0.403391,0.316976,0.357602,0.502103,0.415716,0.361537,0.230297,0.190042,0.398328,0.314617,0.380924,0.358133,0.29897,0.355308,0.354977
1855.216,0.420102,0.322325,0.288363,0.207195,0.543692,0.48542,0.296181,0.417609,0.239552,0.362624,0.928988,0.0920592,0.484621,0.188552,0.0816485,0.459713,0.612859,0.290556,0.194666,0.329437,0.36464,0.271103,0.16844,0.0772534,0.357864,0.208921,0.249646,0.339904,0.368308,0.367489,0.310259,0.335598,0.393836,0.303188,0.36469,0.347715,0.314883,0.387468,0.439842,0.430959,0.377747,0.2936,0.33846,0.478651,0.382007,0.33272,0.2113,0.174964,0.380429,0.296618,0.357069,0.346554,0.281019,0.331249,0.330026
1913.071,0.385621,0.300187,0.261739,0.183365,0.50412,0.440985,0.272277,0.384449,0.219612,0.326778,0.873389,0.0719888,0.454338,0.166634,0.0465483,0.430377,0.555855,0.261198,0.167509,0.309731,0.34357,0.245851,0.155719,0.0543451,0.332543,0.180939,0.230823,0.306178,0.344005,0.339507,0.290385,0.31367,0.367708,0.274643,0.342252,0.335887,0.291728,0.349965,0.413112,0.390642,0.347849,0.266115,0.314845,0.44667,0.339788,0.292478,0.188006,0.155709,0.361091,0.269326,0.327508,0.327164,0.252228,0.299197,0.295356
1970.925,0.350518,0.275055,0.230202,0.153009,0.453104,0.390607,0.241186,0.347927,0.196564,0.28423,0.809212,0.0471322,0.420942,0.142018,0.00900465,0.392964,0.485683,0.222827,0.140375,0.285151,0.318894,0.21377,0.138677,0.0252346,0.306196,0.152972,0.210038,0.265797,0.313096,0.306933,0.269522,0.283965,0.343167,0.242702,0.316547,0.318482,0.265679,0.309355,0.380861,0.336165,0.316501,0.23362,0.286842,0.405362,0.290118,0.244256,0.160847,0.130906,0.33874,0.235147,0.293091,0.304442,0.213979,0.262668,0.25381
2028.78,0.32118,0.256265,0.200404,0.124162,0.401915,0.350015,0.209191,0.320277,0.180622,0.239665,0.761013,0.0280729,0.397239,0.123558,-0.0204771,0.360934,0.424485,0.191123,0.108597,0.267019,0.300702,0.182004,0.125386,0.00156457,0.284583,0.123279,0.195227,0.233308,0.285091,0.283867,0.252331,0.259662,0.324423,0.21628,0.297363,0.304616,0.247889,0.280025,0.359238,0.292669,0.29141,0.205554,0.265289,0.371943,0.248995,0.198942,0.138883,0.107038,0.322284,0.202553,0.267552,0.278052,0.178304,0.224093,0.21081
2086.635,0.303571,0.245041,0.190755,0.109686,0.378448,0.332281,0.192128,0.303341,0.1712,0.215757,0.732413,0.0160289,0.385108,0.115197,-0.0388601,0.339242,0.392696,0.175035,0.0904479,0.260172,0.291734,0.16446,0.11923,-0.00981749,0.272559,0.109675,0.189206,0.215576,0.268245,0.274681,0.240898,0.247497,0.313872,0.197946,0.287278,0.302529,0.241944,0.267517,0.352897,0.273531,0.276013,0.186462,0.254925,0.354947,0.229927,0.174735,0.125986,0.0933726,0.313236,0.18511,0.256439,0.268346,0.159955,0.200407,0.184499
2144.49,0.295999,0.239544,0.19089,0.102602,0.36977,0.328404,0.184266,0.293813,0.166806,0.20511,0.723079,0.00613953,0.378483,0.112366,-0.047906,0.322644,0.375296,0.165949,0.0844572,0.259249,0.289133,0.15537,0.116807,-0.01483,0.270522,0.105432,0.18762,0.204796,0.256114,0.271412,0.236126,0.243792,0.312652,0.187646,0.285591,0.306129,0.241793,0.264437,0.353605,0.268003,0.270855,0.172096,0.250456,0.345543,0.222371,0.162498,0.118405,0.0860566,0.312093,0.175665,0.251113,0.271135,0.150875,0.187705,0.168362
2202.345,0.29337,0.240743,0.191453,0.0977634,0.363103,0.332889,0.179555,0.292323,0.167649,0.197269,0.73404,-0.000892144,0.376257,0.112848,-0.0465955,0.312138,0.366065,0.16146,0.0794708,0.264156,0.292687,0.148475,0.116496,-0.0152174,0.275222,0.103895,0.18896,0.199767,0.245963,0.272647,0.236781,0.247487,0.317588,0.186677,0.291678,0.310953,0.245552,0.267434,0.359403,0.266186,0.271679,0.16062,0.250779,0.340121,0.221514,0.153895,0.115385,0.0815851,0.317726,0.16934,0.250069,0.275353,0.144894,0.177034,0.15587
2260.2,0.295396,0.247452,0.192112,0.0960577,0.35864,0.338554,0.177816,0.297034,0.170065,0.192343,0.758597,-0.00557586,0.378201,0.115277,-0.0376495,0.308691,0.362816,0.161196,0.0751984,0.273853,0.300889,0.143999,0.118118,-0.0118733,0.284163,0.102559,0.193094,0.200764,0.239964,0.278109,0.240824,0.256971,0.327918,0.193196,0.303242,0.317771,0.25256,0.275689,0.3673,0.265068,0.278712,0.150355,0.255364,0.339355,0.227207,0.149138,0.116356,0.0795797,0.328601,0.166546,0.254457,0.277951,0.142665,0.168082,0.146227
2318.055,0.29611,0.250268,0.192473,0.0933126,0.35147,0.345292,0.176694,0.303029,0.168134,0.187346,0.779727,-0.0112508,0.379368,0.116515,-0.0230239,0.305857,0.363629,0.161499,0.0687796,0.284894,0.308401,0.136996,0.120253,-0.00764926,0.288565,0.102133,0.19148,0.199813,0.228726,0.277335,0.244852,0.261604,0.335407,0.198342,0.311149,0.32285,0.254736,0.278444,0.374488,0.257337,0.281105,0.147095,0.26008,0.337124,0.231003,0.145413,0.118606,0.0726737,0.337534,0.163817,0.255727,0.294582,0.139768,0.163421,0.142172
2375.91,0.294669,0.251751,0.190995,0.0935204,0.349507,0.33981,0.176351,0.302756,0.167764,0.1853,0.787803,-0.0218314,0.379869,0.116844,-0.0120336,0.304212,0.360097,0.161042,0.0668538,0.290867,0.311229,0.134278,0.121383,-0.00488029,0.291084,0.10083,0.190644,0.19954,0.224297,0.276593,0.242893,0.264741,0.342616,0.198003,0.315752,0.322943,0.255352,0.279587,0.374785,0.256275,0.283536,0.141594,0.261261,0.334,0.235465,0.144955,0.120509,0.0710599,0.342298,0.163274,0.257599,0.303235,0.138944,0.160129,0.137105
2399.052,0.29477,0.25498,0.187384,0.097667,0.354939,0.327787,0.17685,0.299321,0.175012,0.187817,0.787598,-0.03036,0.380887,0.118003,-0.0120966,0.305863,0.354147,0.16146,0.0713923,0.287862,0.310127,0.138619,0.121587,-0.00468135,0.294706,0.0989093,0.195887,0.202817,0.231877,0.281952,0.238555,0.269551,0.34854,0.196926,0.318781,0.321207,0.259004,0.284233,0.370916,0.265253,0.289832,0.132133,0.258015,0.334725,0.241083,0.147264,0.12126,0.0787497,0.345227,0.16638,0.262558,0.289313,0.142207,0.159838,0.130054