File: Glass FTIR Baseline Share With Sarah 2023/Dans_Data_raw_cleaned.csv
Wavenumber,WD23MI02,WD33MI03,SH55MI02,SH54MI11,SH63MI02,WD71AMI01,SH63MI10,SH01MI11,SH01MI05,SH63MI39,WD23MI03A,FI38MI01C,SH01MI12B,CV09EMI05,FI38MI01B,SH01MI12A,OK14MI07,OK14MI12,AK96MI13,OK14MI01,WD35MI04A,SH63MI43,OK14MI06C,Terry3MI04A,FI45MI02,AK96MI08,WD70MI03,Terry3MI03,JFL19BMI11,WD12MI04A,FI45MI05,WD70MI01A,WD35MI02,WD07MI01A,FI45MI06,OK14MI08,WD70MI01B,WD12MI06,WD35MI01,OK14MI09,WD07MI01B,SH63MI53,FI38MI05A,SH58MI01,SH63MI34,SH01MI21,OK17MI05A,SH63MI22,FI45MI04A,SH63MI27,JFL30AMI12,VS73MI02,SH63MI25,SH63MI31,SH63MI24
451.2686,0.820063,1.91683,0.561094,0.354758,1.38062,0.958119,0.501156,1.43457,0.6397086,0.558277,2.26386,0.330773,1.17948,0.5859743,0.331403,0.817392,2.981056,0.643463,0.6487644,3.47991,0.816372,0.593019,0.374355,0.2711214,1.05229,0.425731,0.673407,0.641772,0.5702524,0.799922,0.441858,0.795417,1.74099,0.59531,1.05507,3.25979,0.699576,0.813621,1.27972,0.976636,0.863601,2.41748,0.833221,0.9123945,0.9456461,0.474767,0.4801752,0.3688718,2.45084,0.658986,0.828558,0.7018526,0.53032,0.511019,0.929539
865.8958,3.20666,3.16073,2.034669,1.88817,2.10824,1.86127,1.88934,2.6587,1.68863,2.20585,2.99064,2.02625,2.098683,2.21564,1.980003,2.08315,3.960776,2.20386,2.422477,1.74234,2.473164,2.854483,1.906995,1.84765,2.47375,2.810314,2.19795,2.17024,1.82859,2.228685,3.03989,2.33938,3.81707,1.99772,2.74493,1.83142,2.46937,2.32646,3.11311,1.713896,2.41403,2.284432,2.30951,2.364988,2.451965,1.94378,1.94125,1.74717,3.64085,2.078719,2.504909,2.3225,2.034358,2.09722,2.23971
1280.523,1.106632,0.782958,0.854139,0.641426,1.559364,1.341222,0.7885663,0.886329,0.57479,0.971604,2.1018,0.487381,1.15469,0.595264,0.497593,1.039035,1.644664,0.793392,0.6971186,0.863884,0.798097,0.7994925,0.387703,0.480764,0.853571,0.62728,0.6113341,0.898146,0.8896118,0.9134973,0.775288,0.74208,0.870038,0.802346,0.850097,0.92496,0.7392697,1.037809,0.9202189,1.065225,0.916337,0.6151095,0.7595773,1.10925,1.072997,0.961324,0.540816,0.5599085,0.856237,0.739878,0.9379074,0.8893099,0.8323381,1.00637,0.9074682
1695.15,0.508492,0.397376,0.3273568,0.2206323,0.55338,0.705199,0.3141691,0.531683,0.2902,0.371885,1.21748,0.158734,0.5986535,0.2708613,0.185951,0.548031,0.721255,0.3363501,0.226516,0.3832793,0.44432,0.283669,0.18677,0.114161,0.486691,0.2355036,0.330101,0.404604,0.404294,0.476664,0.4048089,0.414528,0.495629,0.3919883,0.4857637,0.364846,0.4192804,0.493272,0.548954,0.473016,0.4548106,0.337277,0.398038,0.54213,0.471848,0.365903,0.25922,0.192694,0.4843356,0.314244,0.458382,0.375725,0.298399,0.3600418,0.376529
2109.777,0.2995325,0.2401227,0.1934164,0.106125,0.373188,0.329653,0.1893231,0.299837,0.1665434,0.211518,0.7261,0.0144039,0.381317,0.1134151,-0.04276292,0.3323511,0.3839262,0.1699327,0.0877607,0.257777,0.289542,0.1598474,0.117618,-0.0118524,0.270969,0.1079437,0.188272,0.210441,0.263699,0.2733493,0.2418977,0.247025,0.312141,0.192231,0.285973,0.3094562,0.242238,0.265605,0.3538219,0.2702961,0.273315,0.180389,0.253078,0.351631,0.226961,0.169187,0.1220864,0.0900918,0.309867,0.181168,0.2537012,0.268929,0.156293,0.197205,0.1761748
2524.405,0.282383,0.237897,0.174011,0.100532,0.344831,0.308371,0.173165,0.283349,0.1651868,0.189748,0.755978,-0.0569233,0.374647,0.110089,-0.001329651,0.299038,0.3336212,0.1542809,0.0634586,0.2875902,0.3000584,0.134297,0.1202242,-0.007663456,0.279157,0.0924457,0.1849067,0.1904,0.219709,0.2637124,0.2224722,0.257093,0.3484823,0.180515,0.3055004,0.30383,0.2488676,0.266232,0.3606,0.2614085,0.2780965,0.124558,0.2499537,0.317927,0.238645,0.150199,0.118898,0.0818236,0.3293003,0.1618007,0.247965,0.308248,0.139835,0.157694,0.1266236
2939.032,0.55085,0.540533,0.3553485,0.143437,0.361614,0.949492,0.340822,0.699803,0.364155,0.238861,1.7952,0.263725,0.740821,0.358295,0.288327,0.715348,0.704627,0.331174,0.146762,0.50845,0.6463757,0.136584,0.208387,0.173659,0.747751,0.1452232,0.479576,0.419684,0.241017,0.689209,0.5999905,0.6255937,0.7003969,0.494406,0.7672473,0.416434,0.648424,0.639429,0.8050891,0.489229,0.590995,0.1332936,0.506148,0.5894393,0.583291,0.244135,0.2843864,0.107384,0.7318974,0.262692,0.614965,0.5241226,0.23239,0.164394,0.343258
3353.659,1.19716,1.23539,0.997658,0.206781,0.485173,2.17346,0.815182,1.740056,0.883618,0.319054,3.285001,1.08836,1.62903,1.03,0.9814461,1.67568,1.72075,0.7751776,0.3999616,1.08413,1.48123,0.1538132,0.413427,0.605039,1.9086,0.3370257,1.20192,1.00431,0.318569,1.78079,1.48006,1.58892,1.41942,1.26913,1.85209,0.843554,1.75333,1.60618,1.91647,1.05321,1.31907,0.197178,1.140686,1.28264,1.404,0.4296989,0.633613,0.144613,1.655805,0.4768932,1.59155,1.10954,0.4431571,0.2009481,0.853309
3768.286,0.199779,0.119657,0.203304,0.180107,0.386021,0.1850006,0.162816,0.252607,0.138623,0.238702,0.536263,-0.119942,0.328721,0.0606372,-0.0708322,0.2173357,0.342971,0.147628,0.0551107,0.188824,0.236979,0.120325,0.101319,-0.02960198,0.1817108,0.0735224,0.131829,0.147805,0.241628,0.191881,0.1440861,0.21558,0.3377961,0.0869673,0.1854885,0.2688288,0.2225932,0.211993,0.3362062,0.245275,0.222921,0.109166,0.174499,0.302174,0.17337,0.216767,0.1277762,0.103182,0.168805,0.171935,0.182173,0.547561,0.154886,0.194054,0.134024
4182.913,0.176291,0.116265,0.2062952,0.2264042,0.409978,0.1296365,0.1680778,0.255358,0.138808,0.272527,0.4835967,-0.130766,0.317543,0.0425867,-0.133639,0.2132822,0.345889,0.152486,0.0521824,0.198327,0.2280185,0.1340565,0.09739751,-0.0332043,0.166299,0.07411799,0.110177,0.148377,0.275098,0.191158,0.1373465,0.214794,0.340612,0.0759935,0.1705513,0.251192,0.225503,0.209059,0.342911,0.2529251,0.2114195,0.1381449,0.1597885,0.301701,0.159785,0.219856,0.117717,0.116954,0.1390203,0.185959,0.1644065,0.665782,0.172838,0.209588,0.163145
4597.541,0.184495,0.151787,0.234926,0.2854434,0.443042,0.139763,0.1996065,0.276725,0.156766,0.320272,0.520262,-0.084374,0.3397901,0.0481238,-0.08867357,0.232585,0.368044,0.182517,0.0641586,0.207648,0.244283,0.164933,0.105885,-0.0167558,0.1918776,0.08574813,0.132754,0.177532,0.301504,0.217458,0.15237,0.2455,0.387111,0.0989212,0.189292,0.2263986,0.2670646,0.248487,0.3826339,0.2939667,0.232263,0.169467,0.173837,0.33761,0.2082908,0.249754,0.1334022,0.141995,0.1569045,0.220155,0.1745135,0.80515,0.21225,0.244934,0.1807746
5012.167,0.205723,0.199097,0.301763,0.343807,0.498362,0.163282,0.228471,0.2989718,0.177727,0.358862,0.582214,-0.0753967,0.372864,0.0561436,-0.0556432,0.2712319,0.3871068,0.214805,0.08047545,0.219304,0.2664464,0.2006261,0.1160306,0.001499401,0.222277,0.0972693,0.154728,0.208137,0.3072684,0.2592788,0.175915,0.28304,0.4389429,0.1280093,0.2183577,0.261354,0.312069,0.291153,0.434608,0.3386477,0.260251,0.19516,0.1976854,0.3730778,0.259695,0.2926651,0.158762,0.163953,0.1877528,0.256297,0.189826,0.948128,0.249494,0.266666,0.22161
5426.795,0.221023,0.2279483,0.3527868,0.388263,0.541924,0.170611,0.2451782,0.312771,0.188971,0.377866,0.608613,-0.071556,0.3877594,0.0606726,-0.08125217,0.281603,0.3987935,0.2359608,0.09158063,0.2390046,0.2722493,0.2248501,0.1206149,0.009247512,0.234685,0.100861,0.1594665,0.227233,0.298131,0.2759457,0.187107,0.306442,0.463498,0.142594,0.230187,0.311587,0.338027,0.3179251,0.467171,0.3624752,0.275902,0.19817,0.2147559,0.400891,0.275287,0.323544,0.176737,0.177585,0.212629,0.274187,0.198426,1.09183,0.2681662,0.285786,0.247694
5841.422,0.224685,0.2271256,0.3708439,0.416322,0.547356,0.164417,0.247485,0.31725,0.191532,0.3839889,0.611993,-0.04747881,0.389382,0.0585048,-0.02781871,0.2910908,0.422944,0.237843,0.0932345,0.2435946,0.261845,0.2308464,0.119524,0.005816061,0.2366244,0.101862,0.1662299,0.226663,0.2838585,0.286569,0.1843147,0.317908,0.468853,0.145308,0.2340378,0.28904,0.3566729,0.3276592,0.483385,0.367465,0.277446,0.194251,0.225131,0.407232,0.263647,0.3338958,0.1777192,0.1791668,0.2371585,0.278413,0.196097,1.233157,0.272727,0.28704,0.244016
6256.049,0.236569,0.215403,0.397736,0.442142,0.550363,0.160946,0.249499,0.324032,0.196113,0.3908353,0.612584,-0.0509036,0.390749,0.0560828,-0.06036372,0.2848,0.4478724,0.2457455,0.09353078,0.2309365,0.2546876,0.243483,0.117757,0.003703158,0.238208,0.1060018,0.1630719,0.227784,0.2835515,0.2923263,0.185521,0.3277995,0.4757615,0.1459233,0.2299217,0.264844,0.3722961,0.335831,0.4991608,0.3735219,0.281175,0.191817,0.233742,0.410271,0.2572738,0.337691,0.176138,0.182419,0.249945,0.280688,0.197875,1.33278,0.2740727,0.295805,0.244007
6670.676,0.257524,0.223245,0.443038,0.474099,0.578663,0.172853,0.262937,0.340586,0.204541,0.4162618,0.647594,-0.0446568,0.409636,0.0611936,-0.0412423,0.3028538,0.4936995,0.258696,0.1046361,0.2443607,0.2645832,0.256575,0.12526,0.0173128,0.2511955,0.107186,0.1714915,0.238142,0.3074158,0.315584,0.196392,0.3491958,0.5017888,0.166825,0.2479089,0.3029505,0.3989927,0.359585,0.52889,0.4112155,0.303094,0.1942096,0.264896,0.4363297,0.280014,0.353563,0.1850742,0.196523,0.275831,0.3005409,0.205266,1.42687,0.297949,0.310131,0.2597536
7085.304,0.3223544,0.251779,0.492437,0.515048,0.6250544,0.21075,0.299661,0.378902,0.225609,0.4582388,0.719078,0.000810459,0.456179,0.0779193,0.0159217,0.3364107,0.537814,0.290595,0.1153806,0.27874,0.2906805,0.288706,0.146228,0.0478019,0.290227,0.121515,0.208184,0.27928,0.358,0.368308,0.2251776,0.400871,0.5181542,0.204923,0.285209,0.3097681,0.455884,0.410397,0.5671067,0.438729,0.350551,0.224359,0.3106828,0.4883933,0.330395,0.394027,0.2107567,0.2200038,0.3082802,0.337629,0.22508,1.51358,0.339322,0.332833,0.297364
7499.931,0.433297,0.267744,0.5417106,0.567513,0.688615,0.253399,0.347423,0.4318114,0.2730367,0.4856431,0.791561,0.03943317,0.499397,0.09864167,0.0252776,0.396054,0.5617371,0.3378543,0.152812,0.307885,0.344209,0.3489002,0.1625405,0.0850935,0.3314,0.143338,0.243419,0.339902,0.395005,0.427183,0.269833,0.44903,0.5615196,0.249634,0.32369,0.347044,0.502686,0.506828,0.60622,0.5225238,0.3990938,0.224585,0.3719371,0.554212,0.390423,0.430016,0.244663,0.248989,0.3561077,0.3747676,0.250691,1.61341,0.3854931,0.358132,0.334236
7914.558,0.4211316,0.325032,0.5814383,0.577409,0.81944,0.322651,0.392979,0.4892155,0.2917857,0.566152,0.921502,0.0606608,0.609468,0.1125655,0.115078,0.469203,0.7728759,0.352179,0.1580764,0.3802097,0.3925884,0.346066,0.1785521,0.112806,0.392206,0.1203602,0.286468,0.380962,0.403491,0.477279,0.3742064,0.5083119,0.6952255,0.307994,0.4112066,0.285753,0.53621,0.562862,0.7025785,0.6275253,0.455651,0.28363,0.423735,0.601624,0.409895,0.537677,0.275358,0.282218,0.386385,0.4252287,0.31733,1.782467,0.431384,0.3765499,0.441835
8329.185,1.19778,-0.00793692,0.547131,0.5275464,1.00219,0.433084,0.445516,0.539021,0.245108,1.6674,1.4721,0.11864,0.569032,0.1949182,0.198953,0.5910215,2.05805,0.465169,0.2575406,1.70508,0.417547,0.739898,0.190807,0.0650744,0.478042,0.188359,0.3679836,0.4528793,0.461647,0.543379,0.770126,0.572035,1.35931,0.224415,0.5072,3.05397,0.4973211,0.743348,1.10171,0.832259,0.565036,2.007907,0.660839,0.758238,0.505224,0.615239,0.30163,0.353847,0.1008761,0.40995,0.373651,2.367796,0.514783,0.611821,0.41622
8500.821,4.37876,6,0.578661,0.6018879,0.4579465,0.5489048,0.490723,2.36999,0.270446,2.27958,2.52689,-0.02017467,0.741302,0.268485,0.1201,0.597379,0.8859149,0.538051,0.194443,0.366406,0.625092,2.33497,0.291629,-0.008311963,0.458423,0.09219151,0.540448,0.7520096,1.16203,0.46485,-0.08518945,0.5475094,3.29388,0.105769,0.353903,3.271,0.498356,0,0.593482,0.513602,0.5693517,0.321104,0.3770955,0.7933593,0.738521,0.376412,0.329143,0.307118,6,0.6789613,0.151963,1.39146,0.391772,0.386859,2.35611