File: Glass FTIR Baseline Share With Sarah 2023/H2O_Free_Avg+PCA.csv
Wavenumber,Average_Baseline,PCA_1,PCA_2,PCA_3,PCA_4
1276.666,0.5,-7.32093e-16,7.93916e-16,-2.19084e-15,6.49514e-16
1284.38,0.393841,0.00717386,-0.0256018,-0.0308559,0.0616883
1292.094,0.304491,0.0135515,-0.045425,-0.0539846,0.10046
1299.808,0.229783,0.0192187,-0.060286,-0.0704709,0.120437
1307.522,0.167709,0.0242561,-0.0709362,-0.0813283,0.125398
1315.236,0.116415,0.028738,-0.0780626,-0.0874983,0.118781
1322.95,0.074207,0.0327334,-0.0822885,-0.0898492,0.103679
1330.664,0.0395447,0.0363054,-0.0841739,-0.0891759,0.0828464
1338.378,0.0110435,0.0395112,-0.0842158,-0.0861989,0.0586954
1346.092,-0.0125274,0.0424023,-0.0828491,-0.0815637,0.0332959
1353.806,-0.0322454,0.0450239,-0.0804466,-0.0758398,0.00837705
1361.52,-0.0490354,0.0474158,-0.0773201,-0.0695203,-0.0146735
1369.234,-0.064727,0.0496025,-0.0741331,-0.0627482,-0.0330092
1376.948,-0.0787448,0.0516005,-0.0706339,-0.0563517,-0.0475714
1384.662,-0.0910782,0.053509,-0.0667082,-0.0507278,-0.0589215
1392.376,-0.102041,0.0553621,-0.062382,-0.0456083,-0.0682531
1400.09,-0.11186,0.0569951,-0.0575639,-0.0411392,-0.0757976
1407.804,-0.12074,0.0584146,-0.05266,-0.037265,-0.0815742
1415.518,-0.128984,0.059687,-0.0481503,-0.0333209,-0.0850881
1423.232,-0.136782,0.0607322,-0.0436707,-0.0295456,-0.0871654
1430.946,-0.144172,0.0616346,-0.0387973,-0.0264579,-0.0871956
1438.66,-0.151139,0.0625752,-0.0333496,-0.0240893,-0.0834016
1446.374,-0.157742,0.0635051,-0.0276145,-0.022085,-0.0772143
1454.088,-0.163911,0.0643819,-0.0222134,-0.0204048,-0.0706163
1461.802,-0.169489,0.0651615,-0.0166669,-0.0198923,-0.0637538
1469.516,-0.174596,0.0658469,-0.0114075,-0.0200365,-0.0569832
1477.23,-0.179301,0.0663598,-0.00723345,-0.0193529,-0.0523157
1484.944,-0.183493,0.0666912,-0.00385955,-0.0177529,-0.0485934
1492.658,-0.187161,0.0670038,-0.0011889,-0.0154851,-0.0448607
1500.372,-0.189595,0.0672331,0.000529564,-0.0136475,-0.042173
1508.086,-0.192442,0.0674126,0.00369246,-0.0121053,-0.0369677
1515.8,-0.195054,0.0674883,0.0066923,-0.0105051,-0.032044
1523.514,-0.197465,0.0674633,0.00953967,-0.00885821,-0.0274555
1531.228,-0.19966,0.0673566,0.0121954,-0.00693042,-0.0231194
1538.942,-0.201583,0.0672133,0.0145284,-0.00422121,-0.01917
1546.656,-0.203431,0.0669508,0.016862,-0.00202393,-0.0166099
1554.37,-0.205283,0.0665533,0.0191535,-0.000285695,-0.0149244
1562.084,-0.207136,0.0660175,0.0214582,0.000850568,-0.0137881
1569.798,-0.209034,0.0654732,0.0236256,0.00126268,-0.0118395
1577.512,-0.210976,0.0650147,0.0257782,0.000958197,-0.00860278
1585.226,-0.212964,0.0645598,0.0281785,-0.000215365,-0.00374509
1592.94,-0.21505,0.0641189,0.0305314,-0.00215865,0.00247754
1600.654,-0.21719,0.0637835,0.0324811,-0.00429322,0.00879346
1608.368,-0.21942,0.0635242,0.0338489,-0.00619773,0.0147146
1616.082,-0.221806,0.0632791,0.0347323,-0.00780322,0.0199196
1623.796,-0.224363,0.0629733,0.0352901,-0.00923602,0.0248053
1631.51,-0.227011,0.0625484,0.035809,-0.0107522,0.0289924
1639.224,-0.229621,0.0621059,0.0366777,-0.0123893,0.0330065
1646.938,-0.232101,0.0616921,0.0382569,-0.0141773,0.0377271
1654.652,-0.23441,0.0612678,0.0404647,-0.0160842,0.0430426
1662.366,-0.23644,0.0608653,0.0428775,-0.0178549,0.0486414
1670.08,-0.23809,0.0604371,0.0455983,-0.0192689,0.0541265
1677.794,-0.239437,0.0599741,0.0481637,-0.0195623,0.0586109
1685.508,-0.240544,0.059412,0.0501436,-0.0182836,0.060507
1693.222,-0.241425,0.0587451,0.0515352,-0.0158338,0.0600978
1700.936,-0.242148,0.0579926,0.0523098,-0.0124166,0.0574882
1708.65,-0.242764,0.0570571,0.0527333,-0.00818586,0.0529036
1716.364,-0.243278,0.0560017,0.052727,-0.00314842,0.0472939
1724.078,-0.243661,0.0548618,0.0526275,0.00196838,0.0417804
1731.792,-0.243971,0.0536396,0.0524617,0.00666944,0.0367537
1739.506,-0.244307,0.0523821,0.0521418,0.010819,0.0322513
1747.22,-0.244722,0.051152,0.0516319,0.0144106,0.0282437
1754.934,-0.245326,0.0499829,0.0505899,0.0178647,0.0249422
1762.648,-0.246217,0.0488723,0.0491352,0.0213937,0.0225031
1770.362,-0.24751,0.047761,0.0474813,0.0250374,0.0210105
1778.076,-0.249262,0.0466174,0.0455308,0.0287598,0.0193461
1785.79,-0.251507,0.045474,0.0432307,0.0323603,0.0167069
1793.504,-0.254269,0.0443265,0.0405303,0.0357081,0.0130254
1801.218,-0.25749,0.0431579,0.0376253,0.0386925,0.00874964
1808.932,-0.261079,0.0420128,0.03464,0.0412355,0.00462674
1816.646,-0.265014,0.0409363,0.0317478,0.0432756,0.00140851
1824.36,-0.269227,0.0399028,0.0293528,0.0445565,-0.000295856
1832.074,-0.273672,0.0388907,0.0272522,0.045219,-0.000580842
1839.788,-0.278324,0.0379757,0.0250656,0.0455992,-0.000237136
1847.502,-0.283152,0.0371934,0.0227494,0.0460669,-0.000139619
1855.216,-0.288175,0.0364715,0.0201337,0.0469015,-0.000455424
1862.93,-0.29342,0.0357379,0.0170184,0.0481688,-0.00150643
1870.644,-0.29886,0.0349489,0.0134378,0.0497482,-0.0031874
1878.358,-0.30449,0.0340647,0.00946973,0.0515476,-0.00515653
1886.072,-0.310343,0.0330613,0.00531751,0.0535146,-0.00713274
1893.786,-0.316413,0.031971,0.000991084,0.0556558,-0.00886092
1901.5,-0.322659,0.0308375,-0.00315275,0.0577307,-0.00995622
1909.214,-0.329069,0.0297204,-0.00694147,0.0596443,-0.0103367
1916.927,-0.335616,0.0286392,-0.0103764,0.0614021,-0.0100927
1924.641,-0.34225,0.027622,-0.0132726,0.0625477,-0.00855153
1932.355,-0.348978,0.0267129,-0.0156247,0.0628306,-0.00560957
1940.069,-0.355826,0.0259122,-0.0177447,0.0623491,-0.00186066
1947.783,-0.362806,0.0252056,-0.019903,0.0614973,0.00210567
1955.497,-0.369928,0.024524,-0.0222767,0.060736,0.0056657
1963.211,-0.377165,0.0238604,-0.0250177,0.0602599,0.00858583
1970.925,-0.384453,0.0232342,-0.0278231,0.059849,0.0109058
1978.639,-0.391739,0.0226464,-0.0304034,0.0593545,0.012992
1986.354,-0.398925,0.0221319,-0.0327804,0.0586866,0.0148721
1994.068,-0.405861,0.0216996,-0.0348838,0.0575534,0.0169876
2001.781,-0.412449,0.0213524,-0.0365936,0.0558245,0.019828
2009.495,-0.418646,0.0210884,-0.0377914,0.0535417,0.0233184
2017.209,-0.424443,0.0208551,-0.0384905,0.0507934,0.0273968
2024.923,-0.429824,0.0206158,-0.038792,0.0477674,0.0315729
2032.637,-0.434786,0.0203751,-0.0389344,0.0449479,0.0354067
2040.351,-0.439349,0.0201079,-0.0391725,0.042767,0.0384177
2048.065,-0.443544,0.0197662,-0.0395846,0.041472,0.0401735
2055.779,-0.447417,0.0193041,-0.0402646,0.0410565,0.0408091
2063.493,-0.451004,0.0187034,-0.0412598,0.0413105,0.0405034
2071.207,-0.454316,0.0179926,-0.0425317,0.0419683,0.0395055
2078.921,-0.457364,0.0172301,-0.0438372,0.0425844,0.0383377
2086.635,-0.460167,0.0164894,-0.0448884,0.0428775,0.0372963
2094.349,-0.462736,0.0157939,-0.0455164,0.0427973,0.0364746
2102.063,-0.465083,0.0151462,-0.0457364,0.0423179,0.0361347
2109.777,-0.46725,0.0145532,-0.0456299,0.0415669,0.0363515
2117.491,-0.469298,0.0139874,-0.0452113,0.040846,0.0369098
2125.205,-0.471297,0.013411,-0.0446748,0.040385,0.0375377
2132.919,-0.473278,0.0128152,-0.0443256,0.0401913,0.0379186
2140.633,-0.475244,0.0122245,-0.044534,0.040463,0.0375364
2148.347,-0.477207,0.0116085,-0.0451758,0.0410906,0.0360177
2156.061,-0.479138,0.0109498,-0.0459863,0.0417912,0.0332467
2163.775,-0.480983,0.0103037,-0.0469018,0.0425342,0.0293848
2171.489,-0.482713,0.00970292,-0.0477325,0.0431817,0.0249625
2179.203,-0.48432,0.00913945,-0.0481939,0.043465,0.0207557
2186.917,-0.485817,0.00860446,-0.0481633,0.0433177,0.0175092
2194.631,-0.487223,0.00811239,-0.0477695,0.042951,0.0154615
2202.345,-0.488545,0.00765913,-0.0470669,0.0424824,0.0148132
2210.059,-0.48979,0.00719155,-0.0461406,0.0419213,0.0149454
2217.773,-0.490917,0.00671066,-0.0449398,0.0412433,0.0155969
2225.487,-0.491982,0.00620851,-0.0437361,0.0405859,0.0157337
2233.201,-0.493046,0.00576005,-0.0427542,0.0397368,0.0148776
2240.915,-0.493982,0.00539656,-0.0415347,0.0385769,0.0134014
2248.629,-0.494727,0.00495154,-0.0399611,0.037404,0.0113052
2256.343,-0.495455,0.00442196,-0.0386944,0.0365199,0.0081008
2264.057,-0.496304,0.00398126,-0.0381067,0.035951,0.00389899
2271.771,-0.497275,0.00370821,-0.0380242,0.0357021,-0.000651193
2279.485,-0.498287,0.00359734,-0.0382519,0.0356944,-0.00523034
2287.199,-0.499305,0.00357712,-0.0386272,0.0357747,-0.0100122
2294.913,-0.500328,0.00363315,-0.0391172,0.0359423,-0.0149427
2302.627,-0.50134,0.00375322,-0.039654,0.0361452,-0.0198973
2310.341,-0.502321,0.00392155,-0.0401553,0.0363182,-0.0247301
2318.055,-0.503249,0.00411873,-0.0405246,0.0363836,-0.0292749
2325.769,-0.504093,0.00432179,-0.0406512,0.0362504,-0.0333443
2333.483,-0.504822,0.00450414,-0.0404097,0.035815,-0.0367299
2341.197,-0.505399,0.00463559,-0.0396609,0.0349605,-0.0392028
2348.911,-0.505782,0.00468238,-0.0382508,0.0335576,-0.040513
2356.625,-0.505927,0.00460712,-0.0360115,0.0314636,-0.0403896
2364.339,-0.505782,0.00436885,-0.0327604,0.0285232,-0.0385409
2372.053,-0.505294,0.00392299,-0.0283009,0.0245679,-0.0346543
2379.767,-0.504404,0.0032214,-0.0224219,0.0194167,-0.0283963
2387.481,-0.50305,0.0022123,-0.014898,0.0128753,-0.0194126
2395.195,-0.501164,0.000840335,-0.00548968,0.00473656,-0.00732808
2399.052,-0.5,3.16124e-17,1.85994e-18,-1.02495e-16,-4.67212e-17