File: Glass FTIR Baseline Share With Sarah 2023/Files from 1_19_23/1630_Peaks_Baseline_removed.csv
Wavenumber,WD23MI02,WD33MI03,WD71AMI01,SH01MI11,SH01MI05,WD23MI03A,FI38MI01C,SH01MI12B,CV09EMI05,FI38MI01B,SH01MI12A,OK14MI07,OK14MI12,OK14MI01,WD35MI04A,OK14MI06C,FI45MI02,WD70MI03,Terry3MI03,WD70MI01A,WD35MI02,FI45MI06,WD35MI01,WD07MI01B,FI38MI05A,SH58MI01,SH63MI34,OK17MI05A,FI45MI04A,JFL30AMI12,SH63MI24
1400.09,0.00890504,0.00477517,0.0362671,0.008385,0.0053846,0.0248888,0.00638968,0.00807982,0.00938947,0.00543978,0.011019,0.0112425,0.00374133,0.00513928,0.00760772,0.00135815,0.0129276,0.00855703,0.00620073,0.0127192,0.00794104,0.0123042,0.0133497,0.00558377,0.00665762,0.00552155,0.00898315,0.00204469,0.00924173,0.011934,0.00472347
1415.518,0.00478944,0.00524109,0.0350007,0.00878274,0.00572001,0.0247197,0.00609275,0.00829794,0.00973041,0.00617951,0.00913173,0.0131704,0.00213082,0.00454296,0.00663917,0.00061764,0.0129656,0.00993841,0.00339066,0.0141143,0.00897564,0.0110818,0.0134925,0.00721622,0.00633108,0.00470515,0.00863543,0.00209839,0.010953,0.0103784,0.00558612
1430.946,0.0056193,0.00566071,0.0345602,0.00769774,0.00630487,0.0253321,0.00633393,0.00801904,0.00948957,0.00453314,0.0108187,0.0087933,0.00300137,0.00425101,0.00665158,0.000600476,0.0132676,0.0101301,0.00529386,0.0126642,0.00976827,0.0123102,0.012242,0.00611301,0.00446236,0.00621808,0.00944949,0.00125291,0.0116179,0.0112824,0.00553723
1446.374,0.00713417,0.00476243,0.0351967,0.00962191,0.00722073,0.0262388,0.0060777,0.00924657,0.00930684,0.00603306,0.0109672,0.00918972,0.00402627,0.0068821,0.00751225,0.00131897,0.0124553,0.00911739,0.00573027,0.0131491,0.00789551,0.0122982,0.013229,0.00752557,0.00691379,0.00599716,0.0092483,0.00196464,0.00930881,0.0128703,0.00549659
1461.802,0.00788968,0.00493833,0.0336533,0.00738273,0.00416993,0.0223578,0.00512584,0.00757916,0.00863513,0.00825242,0.010358,0.0118806,0.00116957,0.00430333,0.00548081,0.00187983,0.0104493,0.00749887,0.0038558,0.0128317,0.0081689,0.0108308,0.0122626,0.00406479,0.00548417,0.00430472,0.00781283,0.002163,0.00998783,0.00816377,0.00638248
1477.23,0.00233217,0.00451944,0.0328977,0.00985159,0.0026345,0.0207843,0.00542049,0.00250583,0.00689084,0.00529312,0.00997598,0.00649532,0.00399894,0.00366112,0.0078559,0.00170323,0.010408,0.00594677,0.00310201,0.0117289,0.00713972,0.0100553,0.00899411,0.00230099,0.00211035,0.00272776,0.005162,0.00103402,0.00918741,0.00762487,0.00794165
1492.658,0.00476557,0.00667811,0.0372785,0.012591,0.0057429,0.029048,0.00576567,0.00635911,0.00800631,0.0086253,0.0119627,0.0101507,0.00516954,0.00345332,0.00904274,0.00107226,0.0130397,0.00729782,0.0041154,0.0130593,0.00821552,0.0143663,0.0120713,0.00588085,0.00749366,0.00397123,0.00727069,0.00240069,0.0114066,0.0087228,0.00659445
1508.086,0.00495336,0.00604098,0.0386016,0.0143059,0.0063194,0.0331608,0.00857305,0.00747952,0.00972511,0.0117385,0.0113188,0.00592546,0.00229458,0.00364552,0.0089995,-2.54535e-05,0.0167431,0.00990736,0.00338672,0.012357,0.00856199,0.0174639,0.0113628,0.00643353,0.00715187,0.00509527,0.00656075,0.00369475,0.0182426,0.00983949,0.00521841
1523.514,0.00057046,0.0112899,0.0501436,0.0214438,0.00712407,0.0455707,0.0118695,0.0117426,0.0130148,0.0129655,0.0138669,0.0132369,0.00481642,0.00516753,0.0155241,0.000234452,0.0230243,0.0126962,0.00594304,0.0147869,0.0114951,0.0221568,0.0125986,0.0101886,0.00744681,0.00426367,0.0106936,0.00433976,0.0227678,0.0161093,0.00723448
1538.942,0.004849,0.0154264,0.0587723,0.024686,0.00832885,0.0589491,0.0148818,0.0165101,0.0169361,0.0179947,0.0182177,0.0125215,0.00662895,0.00861699,0.0191966,0.00142607,0.029946,0.017074,0.00410158,0.0191871,0.0171909,0.0330701,0.0203034,0.0108708,0.0114675,0.00726096,0.0125829,0.00486445,0.0283754,0.0190501,0.00612414
1554.37,0.00973943,0.0190515,0.0784771,0.0337486,0.015095,0.0807957,0.0195667,0.0208017,0.0226245,0.0237036,0.0252469,0.0186474,0.00745174,0.0121807,0.0243507,0.00210586,0.040882,0.0205737,0.00618568,0.0254536,0.0229174,0.0400509,0.0280107,0.0128433,0.0171636,0.00799263,0.0194491,0.00632375,0.0352403,0.0253501,0.00863262
1569.798,0.0145061,0.027487,0.105854,0.0441634,0.0222735,0.111032,0.0282492,0.030368,0.0277629,0.0333818,0.0367733,0.0282369,0.0123725,0.0157383,0.0359261,0.00498785,0.0542148,0.0258445,0.0115004,0.0373938,0.0294855,0.0526717,0.0389707,0.0195202,0.0194921,0.0134791,0.0263247,0.00919835,0.045812,0.0364703,0.0178014
1585.226,0.0295686,0.0368768,0.160654,0.0605362,0.0329923,0.163451,0.0413513,0.0424965,0.0405063,0.0456722,0.0581658,0.0437571,0.0200474,0.0252206,0.0490836,0.00798519,0.0785455,0.0390539,0.0182935,0.0603411,0.045222,0.0785814,0.0657137,0.0283789,0.0308848,0.0244946,0.0383806,0.0121949,0.0644201,0.0527093,0.0308045
1600.654,0.057568,0.061398,0.296921,0.105441,0.055893,0.279639,0.0738943,0.0808776,0.0778399,0.0759635,0.106876,0.0902362,0.0317079,0.0425552,0.0819768,0.0141136,0.139406,0.076253,0.0418314,0.113069,0.0803532,0.130289,0.122597,0.0556239,0.0598757,0.049022,0.077159,0.0200384,0.111968,0.103387,0.0556707
1616.082,0.122305,0.110326,0.592417,0.191357,0.109824,0.515756,0.143077,0.164323,0.16281,0.136227,0.2101,0.180457,0.0631048,0.0900769,0.153098,0.0272654,0.264959,0.160958,0.0917127,0.231403,0.157827,0.23946,0.252656,0.118255,0.115408,0.112492,0.162304,0.0403672,0.211845,0.219025,0.119946
1631.51,0.202147,0.161681,0.848884,0.280814,0.166966,0.75863,0.216463,0.255521,0.247294,0.197926,0.318753,0.288276,0.0966721,0.135037,0.22201,0.040823,0.391777,0.249292,0.142036,0.355284,0.242749,0.349371,0.399787,0.18223,0.174964,0.180112,0.249673,0.0617319,0.309679,0.338397,0.192913
1646.938,0.203943,0.159032,0.780733,0.274869,0.155028,0.762992,0.215708,0.251335,0.228563,0.194872,0.30559,0.263774,0.0899421,0.13027,0.217424,0.0379199,0.384159,0.234481,0.129813,0.336625,0.234953,0.342737,0.39274,0.177643,0.168168,0.172734,0.222661,0.0589575,0.301356,0.325889,0.171721
1662.366,0.142027,0.114437,0.524948,0.191747,0.102188,0.564375,0.156287,0.169819,0.145422,0.13845,0.211181,0.169296,0.0587502,0.086499,0.158155,0.0250767,0.273883,0.151835,0.0825397,0.223974,0.15938,0.244335,0.264182,0.123264,0.114239,0.117673,0.134507,0.0382402,0.213726,0.21311,0.105477
1677.794,0.0778542,0.0627029,0.273205,0.110751,0.0517391,0.330521,0.0962748,0.086231,0.0703238,0.0808397,0.123867,0.0869654,0.0336617,0.0436367,0.0925999,0.0140857,0.152169,0.0742802,0.0407362,0.120432,0.0806849,0.140003,0.143701,0.063441,0.0602467,0.0636516,0.0627082,0.0197374,0.121799,0.106546,0.0598004
1693.222,0.03622,0.0323181,0.124042,0.0598101,0.0212433,0.173779,0.0544295,0.0377167,0.0255324,0.0436347,0.0652698,0.0418916,0.0186829,0.0163397,0.0481672,0.00807098,0.0746323,0.0275766,0.0172581,0.0595708,0.0321329,0.0686777,0.069428,0.0262929,0.0282353,0.0326056,0.0228748,0.00946693,0.0595044,0.0448964,0.0361486
1708.65,0.016838,0.0149082,0.0530617,0.0308636,0.0114742,0.0924338,0.0336339,0.011211,0.00564386,0.024497,0.0363233,0.022118,0.00947331,0.00441767,0.0287302,0.00565858,0.035276,0.00634676,0.00798879,0.027175,0.00748505,0.0298368,0.028963,0.0107438,0.0178415,0.0203332,0.00432477,0.00535805,0.025412,0.0157188,0.0210415
1724.078,0.00914946,0.0063011,0.024621,0.0205052,0.0112827,0.0566767,0.0243607,0.00535906,-0.00093361,0.0147842,0.0237758,0.0210876,0.0080237,0.00355606,0.0180958,0.00502372,0.0167035,-0.0014056,0.00328616,0.0132347,-0.00268725,0.0134638,0.0148229,0.0031191,0.0104908,0.0121918,0.000570908,0.00348307,0.0108807,0.00404263,0.013501
1739.506,0.00465265,-0.000600815,0.0100028,0.0161358,0.00640531,0.0366454,0.0171252,0.00408903,-0.00368504,0.0117188,0.0126204,0.0147674,0.00750326,0.00169753,0.0095265,0.00374851,0.00747644,-0.00411301,0.00136722,0.00978432,-0.00675307,0.00549761,0.00934349,0.000692391,0.00373813,0.0114296,-0.00177831,0.00123131,0.00539695,-0.00111311,0.0133273
1754.934,0.00253084,-0.000985317,0.00175496,0.00630321,0.00242456,0.0268692,0.0109997,0.00209396,-0.00625585,0.00767585,0.00785736,0.00819627,0.00369186,-0.00126683,0.00802753,0.0010873,0.00283986,-0.00527514,-0.000146803,0.00607256,-0.00523004,-0.000939123,0.00360243,0.00316262,0.0047027,0.0118225,-0.0029759,-0.000839098,0.00216401,-0.00332913,0.0120211
1770.362,0.00415278,-0.000458697,0.00119712,0.00320645,0.000105601,0.0199678,0.00855176,0.00332797,-0.00444983,0.00273294,0.00339722,0.00532868,8.02026e-05,0.000993975,0.0053388,-2.51002e-06,0.00101714,-0.00304512,-0.000805867,-0.000108407,-0.0037697,-0.00206929,-3.26275e-06,0.00335251,0.00590519,0.0058488,-0.001725,-0.000179446,0.00166318,-0.00302331,0.0047748
1785.79,0.00103679,-0.0021099,0.000661597,0.00212022,0.000482503,0.00686048,0.00488034,0.000817593,-0.00220611,-0.000770099,0.000233312,0.00302441,0.000113695,0.000112939,0.000575869,2.61071e-05,9.36706e-05,-0.00154218,0.00014425,-0.000455915,-0.00315283,-0.00120942,-0.000187457,-6.22795e-06,0.000894485,0.0036002,-0.000795912,-0.000104489,0.00109719,-0.00147906,-0.000818225
1801.218,-0.000632977,-0.00154299,0.000408142,-0.00149132,0.00212646,-0.00360318,-8.49088e-05,-0.00252578,-0.000676699,-0.000372822,0.00120661,0.000865865,0.000275054,-0.000964598,-0.000462692,0.000737302,-0.000273501,-0.000675261,9.87619e-05,0.00178365,-0.00116454,-0.000641999,0.000397037,-0.000252188,-0.00280832,0.000989296,0.000110314,-0.000562271,-0.000678044,4.90715e-05,0.00044927
1816.646,-0.000692673,0.0010458,-0.00121143,-0.000459593,0.00272254,-0.00409695,-0.001453,-0.000791285,-0.000475863,-0.000314079,-0.000646619,0.000616031,-0.00064957,-0.000990923,0.00103958,0.00105321,-0.00037547,-0.000446237,-7.12067e-05,-0.000120067,0.000426026,-0.00185702,-0.00139339,-0.000766826,-7.5962e-05,-0.00221098,-7.79071e-05,-0.00123419,-0.000940821,-0.000562327,0.0025211
1818.574,-0.000159487,0.000970537,-0.0014064,5.19166e-05,0.00245206,-0.00426467,-0.00125409,-0.000579484,-0.000511791,-0.000162729,-0.00104915,0.000657355,-0.000712849,-0.000795314,0.000894141,0.00108543,-0.000386153,-0.000558063,-0.00024415,-0.000675869,0.000352142,-0.00215912,-0.0015582,-0.00106271,0.000390107,-0.00214458,-0.000369227,-0.00115429,-0.00134437,-0.000638943,0.00251663