File: Glass FTIR Baseline Share With Sarah 2023/Files from 1_19_23/CO2_free_baselines_Water_removed_5-19-21.csv
Wavenumber,WD23MI02,WD33MI03,SH55MI02,SH54MI11,SH63MI02,WD71AMI01,SH63MI10,SH01MI11,SH01MI05,SH63MI39,WD23MI03A,FI38MI01C,SH01MI12B,CV09EMI05,FI38MI01B,SH01MI12A,OK14MI07,OK14MI12,AK96MI13,OK14MI01,WD35MI04A,SH63MI43,OK14MI06C,Terry3MI04A,FI45MI02,AK96MI08,WD70MI03,Terry3MI03,JFL19BMI11,WD12MI04A,FI45MI05,WD70MI01A,WD35MI02,WD07MI01A,FI45MI06,OK14MI08,WD70MI01B,WD12MI06,WD35MI01,OK14MI09,WD07MI01B,SH63MI53,FI38MI05A,SH58MI01,SH63MI34,SH01MI21,OK17MI05A,SH63MI22,FI45MI04A,SH63MI27,JFL30AMI12,VS73MI02,SH63MI25,SH63MI31,SH63MI24
1276.666,1.14474,0.809137,0.901339,0.680846,1.64411,1.36309,0.822427,0.911729,0.595285,1.0346,2.14877,0.510849,1.18558,0.614533,0.520746,1.0734,1.70304,0.825643,0.735252,0.892139,0.823824,0.838836,0.405243,0.509925,0.870219,0.661414,0.626974,0.935146,0.926324,0.940512,0.793956,0.758756,0.889702,0.826819,0.87083,0.959792,0.756172,1.07691,0.941017,1.11017,0.947907,0.64279,0.785106,1.15512,1.11597,1.01806,0.563135,0.594477,0.882595,0.779575,0.970741,0.927981,0.881958,1.05484,0.950888
1330.664,0.765925,0.522567,0.495873,0.379331,1.01311,0.880346,0.495582,0.634339,0.378241,0.578738,1.49261,0.245065,0.822603,0.381981,0.272887,0.721233,1.09145,0.525375,0.433445,0.593148,0.546986,0.525317,0.25619,0.242146,0.589957,0.399099,0.41384,0.594656,0.60764,0.61181,0.530415,0.49756,0.632515,0.544182,0.574995,0.582788,0.489847,0.688079,0.655749,0.709057,0.613964,0.457071,0.511043,0.751921,0.688558,0.602449,0.364442,0.332237,0.565276,0.488723,0.611666,0.557041,0.524162,0.651206,0.590633
1384.662,0.618548,0.423486,0.403449,0.29915,0.807329,0.700885,0.389304,0.54442,0.315044,0.47333,1.23469,0.151761,0.677506,0.31278,0.193275,0.612582,0.890464,0.420811,0.352146,0.474242,0.454149,0.419229,0.212983,0.163861,0.479196,0.313968,0.348708,0.492223,0.492379,0.517208,0.42974,0.411734,0.540311,0.448975,0.475603,0.452245,0.403516,0.574626,0.548171,0.585569,0.501939,0.420679,0.419038,0.631887,0.561569,0.504772,0.305285,0.263224,0.468037,0.396148,0.498445,0.434169,0.426441,0.513792,0.476043
1438.66,0.546302,0.389545,0.361726,0.263368,0.685552,0.638789,0.342487,0.50935,0.291912,0.431044,1.12978,0.117883,0.619888,0.28658,0.168187,0.56042,0.797547,0.373765,0.308086,0.418357,0.417275,0.366686,0.19413,0.135037,0.441768,0.269615,0.328146,0.449296,0.451235,0.483665,0.388942,0.380075,0.503936,0.412992,0.443832,0.388693,0.374394,0.531766,0.50617,0.533166,0.461321,0.40099,0.386507,0.573194,0.511265,0.458113,0.28323,0.233581,0.438812,0.344277,0.45775,0.382171,0.377858,0.448833,0.417726
1492.658,0.511008,0.376516,0.339816,0.244016,0.618774,0.617275,0.316093,0.495259,0.281491,0.405157,1.08734,0.108958,0.593411,0.273964,0.158513,0.530657,0.745201,0.347301,0.277211,0.389939,0.404136,0.333055,0.185254,0.119037,0.427393,0.246486,0.320416,0.423895,0.429494,0.464942,0.371492,0.367801,0.488587,0.395288,0.43278,0.362004,0.36629,0.510681,0.491682,0.505465,0.44338,0.38514,0.374942,0.542869,0.485003,0.426712,0.27067,0.216166,0.430594,0.31992,0.439171,0.360186,0.344855,0.409184,0.38352
1546.656,0.494888,0.368656,0.328203,0.237821,0.594878,0.600586,0.311294,0.488442,0.276058,0.398204,1.06559,0.108279,0.575555,0.260334,0.155698,0.516785,0.723974,0.339173,0.260677,0.375858,0.398867,0.318793,0.183508,0.113381,0.418879,0.242009,0.31002,0.411852,0.418948,0.448806,0.360275,0.364147,0.47463,0.382673,0.422711,0.350606,0.360553,0.492712,0.485952,0.495149,0.435558,0.37401,0.37217,0.531328,0.471703,0.411885,0.264568,0.208359,0.423352,0.317574,0.426461,0.354948,0.330724,0.392135,0.375316
1600.654,0.485567,0.3697,0.327158,0.232216,0.576612,0.599216,0.303949,0.482907,0.275111,0.391054,1.06006,0.108406,0.572603,0.25861,0.149295,0.505874,0.706073,0.329015,0.249679,0.371853,0.398997,0.306895,0.181127,0.110066,0.418909,0.233756,0.311546,0.403416,0.415118,0.448447,0.358912,0.3619,0.472854,0.377162,0.425109,0.354288,0.36285,0.491139,0.48475,0.485781,0.434173,0.361203,0.371626,0.52355,0.464439,0.399036,0.258861,0.203927,0.428704,0.307211,0.42554,0.353705,0.318674,0.379392,0.359685
1654.652,0.481294,0.369396,0.319965,0.22395,0.561441,0.599196,0.297306,0.480076,0.272793,0.376275,1.06353,0.106866,0.57114,0.254732,0.148562,0.493776,0.69117,0.322485,0.236992,0.37256,0.400101,0.295403,0.179448,0.106305,0.420896,0.229445,0.310089,0.395062,0.406874,0.444152,0.357571,0.360923,0.473003,0.3723,0.426345,0.355112,0.364283,0.487509,0.487483,0.476897,0.433155,0.346423,0.371757,0.515275,0.457825,0.382242,0.253986,0.195347,0.430825,0.300743,0.422381,0.353578,0.305136,0.365584,0.34667
1708.65,0.472237,0.365246,0.316414,0.222969,0.556145,0.58575,0.298525,0.473238,0.269487,0.377337,1.04864,0.108006,0.559156,0.244324,0.14269,0.486987,0.679739,0.318385,0.228136,0.365944,0.397846,0.289598,0.179285,0.103992,0.414503,0.227965,0.302014,0.387339,0.402405,0.432994,0.351079,0.359388,0.461883,0.362381,0.419612,0.355569,0.36015,0.473894,0.483505,0.471266,0.428557,0.336088,0.370795,0.510764,0.448712,0.374111,0.248588,0.192918,0.427284,0.301887,0.414478,0.355138,0.299649,0.358825,0.344111
1762.648,0.45926,0.353189,0.31435,0.22647,0.56733,0.553012,0.307649,0.457923,0.26207,0.388607,1.01154,0.108516,0.534117,0.224606,0.126067,0.485048,0.669731,0.315722,0.223946,0.354415,0.389806,0.290753,0.179424,0.100308,0.39632,0.229156,0.283461,0.377356,0.396706,0.411114,0.338142,0.355434,0.437363,0.344038,0.400972,0.357281,0.346479,0.445147,0.470739,0.465052,0.416196,0.326833,0.365025,0.508593,0.432639,0.371024,0.239388,0.194117,0.413284,0.310674,0.39779,0.358956,0.302361,0.359459,0.352195
1816.646,0.44114,0.334975,0.302873,0.219205,0.565206,0.514832,0.307608,0.436368,0.249469,0.381012,0.966596,0.103424,0.505172,0.20168,0.102662,0.474147,0.644436,0.304906,0.212346,0.340385,0.376744,0.283364,0.175213,0.0888408,0.374553,0.223942,0.261892,0.358627,0.380684,0.384031,0.321861,0.34625,0.410891,0.320013,0.37787,0.353146,0.328921,0.410098,0.454558,0.447075,0.396699,0.310038,0.352856,0.496569,0.406453,0.353605,0.224277,0.186247,0.393582,0.310929,0.374476,0.356143,0.29378,0.349118,0.3493
1870.644,0.411158,0.316902,0.281703,0.201522,0.533836,0.473767,0.290225,0.409367,0.234585,0.353619,0.915631,0.0875685,0.47708,0.183023,0.0730539,0.452831,0.598672,0.283521,0.186784,0.324622,0.359574,0.264847,0.165316,0.0717854,0.351204,0.201546,0.244863,0.331684,0.362308,0.360427,0.305038,0.330686,0.387257,0.29613,0.359309,0.344406,0.309216,0.377996,0.433536,0.422417,0.370484,0.28727,0.333009,0.471216,0.371266,0.322688,0.205614,0.170076,0.375539,0.290205,0.349735,0.341447,0.274241,0.323012,0.321974
1924.641,0.378417,0.29504,0.256633,0.177978,0.495229,0.431318,0.266866,0.377058,0.215656,0.319203,0.860148,0.0673028,0.447427,0.161728,0.039086,0.423341,0.542809,0.253928,0.162452,0.304829,0.338672,0.240144,0.152635,0.0488417,0.327241,0.175505,0.22667,0.298409,0.338166,0.333153,0.286273,0.308286,0.362604,0.268284,0.336985,0.332229,0.28671,0.341793,0.406827,0.380281,0.341442,0.25967,0.309453,0.43875,0.330377,0.283556,0.182573,0.151082,0.356407,0.263231,0.320817,0.323187,0.245298,0.292204,0.288205
1978.639,0.345964,0.272002,0.225857,0.148665,0.445462,0.384024,0.236558,0.343636,0.193568,0.277858,0.801508,0.0441075,0.416957,0.139039,0.00446946,0.38803,0.476078,0.217702,0.136128,0.282037,0.315931,0.209157,0.136408,0.0214484,0.302896,0.148796,0.207506,0.260574,0.308804,0.303011,0.26729,0.2803,0.34025,0.238676,0.313416,0.316059,0.262702,0.304393,0.377078,0.329104,0.312592,0.229373,0.283264,0.399989,0.283588,0.237458,0.157389,0.127466,0.33608,0.230264,0.288767,0.300714,0.208545,0.257129,0.247742
2032.637,0.319596,0.255329,0.199211,0.122709,0.399443,0.348171,0.20754,0.31891,0.179741,0.237333,0.758573,0.0270819,0.39614,0.122698,-0.0219654,0.359224,0.421525,0.18962,0.106795,0.266193,0.299878,0.180304,0.124815,0.000487423,0.283482,0.121746,0.194612,0.23171,0.283645,0.282914,0.251568,0.258638,0.323418,0.214817,0.29637,0.304333,0.247256,0.278728,0.358422,0.290666,0.290024,0.204049,0.264191,0.370393,0.247095,0.196631,0.13781,0.105747,0.321477,0.200906,0.266445,0.276714,0.176532,0.222001,0.208387
2086.635,0.303571,0.245041,0.190755,0.109686,0.378448,0.332281,0.192128,0.303341,0.1712,0.215757,0.732413,0.0160289,0.385108,0.115197,-0.0388601,0.339242,0.392696,0.175035,0.0904479,0.260172,0.291734,0.16446,0.11923,-0.00981749,0.272559,0.109675,0.189206,0.215576,0.268245,0.274681,0.240898,0.247497,0.313872,0.197946,0.287278,0.302529,0.241944,0.267517,0.352897,0.273531,0.276013,0.186462,0.254925,0.354947,0.229927,0.174735,0.125986,0.0933726,0.313236,0.18511,0.256439,0.268346,0.159955,0.200407,0.184499
2140.633,0.296315,0.239694,0.190977,0.103024,0.370265,0.328379,0.184676,0.294261,0.167032,0.205729,0.723043,0.00690693,0.378774,0.112434,-0.0476235,0.323606,0.376246,0.1664,0.0847235,0.259218,0.289116,0.155856,0.116872,-0.0146244,0.270402,0.105662,0.187634,0.205342,0.256878,0.271516,0.236223,0.243743,0.312556,0.188034,0.285479,0.305665,0.241639,0.264458,0.35344,0.268205,0.271032,0.172911,0.250811,0.346088,0.222683,0.163197,0.118802,0.086446,0.311847,0.176152,0.25135,0.270853,0.151354,0.188515,0.169477
2194.631,0.293417,0.240125,0.191758,0.0982378,0.363897,0.332,0.179986,0.29213,0.167674,0.198181,0.731542,0.000352511,0.376262,0.112704,-0.0473401,0.313197,0.366809,0.161705,0.0802336,0.263407,0.291942,0.149277,0.116457,-0.0154031,0.274316,0.103981,0.188649,0.200071,0.247098,0.272226,0.236596,0.246704,0.316629,0.186313,0.290585,0.310342,0.244851,0.26673,0.358509,0.266419,0.27121,0.162035,0.25083,0.34063,0.221277,0.154823,0.115534,0.0820722,0.316387,0.169847,0.249947,0.274685,0.145433,0.17827,0.157526
2248.629,0.294537,0.245365,0.192261,0.0958292,0.359268,0.337839,0.178037,0.295875,0.168624,0.193029,0.752913,-0.00431635,0.377415,0.114479,-0.0397325,0.308881,0.363185,0.160787,0.0757077,0.271747,0.298906,0.144607,0.117521,-0.0126738,0.282003,0.103024,0.191887,0.20003,0.240724,0.27662,0.240547,0.255078,0.325186,0.191358,0.300598,0.317977,0.251011,0.273619,0.365982,0.265092,0.276741,0.152549,0.254109,0.339248,0.225541,0.149779,0.115855,0.0794276,0.325846,0.166857,0.253008,0.278142,0.142865,0.170384,0.147501
2302.627,0.296813,0.250922,0.192701,0.0947173,0.354228,0.342939,0.177133,0.301597,0.17025,0.189018,0.775912,-0.00933908,0.379697,0.116659,-0.027362,0.307115,0.362931,0.161672,0.0713573,0.282049,0.307055,0.139381,0.119764,-0.00861326,0.288746,0.102099,0.19351,0.201022,0.233149,0.279122,0.243966,0.261712,0.334699,0.197997,0.310291,0.321487,0.255394,0.27926,0.372572,0.260715,0.282027,0.14645,0.259478,0.338404,0.231083,0.146453,0.118123,0.0757835,0.336188,0.164678,0.256675,0.285528,0.140977,0.16466,0.142794
2348.911,0.294658,0.247706,0.189532,0.0932117,0.346975,0.347223,0.176557,0.30538,0.16588,0.185717,0.785777,-0.0181074,0.378668,0.116737,-0.0146994,0.303926,0.364185,0.162021,0.0650812,0.286991,0.3098,0.133185,0.121061,-0.00639117,0.288076,0.102913,0.188583,0.197949,0.220665,0.274484,0.243809,0.260061,0.337627,0.19817,0.312754,0.317735,0.253417,0.276836,0.37742,0.252871,0.280259,0.14715,0.258645,0.334385,0.231585,0.143946,0.119149,0.068662,0.340544,0.163428,0.254071,0.311781,0.138165,0.158124,0.141496