File: Glass FTIR Baseline Share With Sarah 2023/Dans_Examples/CL05MI08.csv
449.3401,2.794
476.3391,1.10928
503.3381,2.04725
530.3371,0.284073
557.3361,1.3175
584.335,1.61869
611.334,2.85065
638.333,2.47774
665.332,3.68818
692.3309,4.14833
719.33,4.204491
746.3289,4.49702
773.3279,3.693308
800.3269,3.84215
827.3259,3.654411
854.3248,4.08016
881.3238,2.89306
908.3228,3.423117
935.3218,4.94669
962.3207,4.44674
989.3197,3.55939
1016.319,4.35447
1043.318,2.781803
1070.317,3.21189
1097.316,2.40898
1124.315,2.29304
1151.31,2.20875
1178.313,2.101047
1205.312,2.04373
1232.31,1.52486
1259.31,1.01604
1286.308,0.823836
1313.307,0.730108
1340.307,0.6734382
1367.305,0.644991
1394.3,0.63595
1421.3,0.635461
1448.3,0.6200078
1475.3,0.591154
1502.3,0.599019
1529.299,0.6072945
1556.3,0.588401
1583.297,0.601472
1610.296,0.695939
1637.295,0.8659544
1664.29,0.732487
1691.293,0.560685
1718.29,0.4926432
1745.29,0.46441
1772.29,0.44988
1799.289,0.44295
1826.29,0.435668
1853.287,0.4234558
1880.286,0.4151537
1907.285,0.394516
1934.28,0.379675
1961.283,0.361312
1988.28,0.345066
2015.281,0.33601
2042.28,0.327697
2069.279,0.3213396
2096.278,0.322193
2123.277,0.321171
2150.276,0.319932
2177.275,0.3209882
2204.274,0.3161571
2231.27,0.31662
2258.272,0.31361
2285.271,0.314421
2312.27,0.314466
2339.269,0.317287
2366.268,0.3185399
2393.27,0.317135
2420.266,0.316114
2447.265,0.3108107
2474.264,0.307372
2501.262,0.301253
2528.261,0.299817
2555.26,0.299103
2582.26,0.304899
2609.259,0.3133344
2636.258,0.325131
2663.256,0.340382
2690.255,0.357003
2717.25,0.37595
2744.25,0.395879
2771.252,0.418586
2798.25,0.440809
2825.25,0.4683796
2852.25,0.496829
2879.248,0.525594
2906.25,0.5597456
2933.25,0.59626
2960.245,0.633101
2987.244,0.674554
3014.243,0.713617
3041.242,0.75715
3068.241,0.799576
3095.24,0.843247
3122.239,0.88762
3149.238,0.932104
3176.237,0.970536
3203.236,1.00996
3230.235,1.04463
3257.23,1.07117
3284.23,1.09524
3311.232,1.12318
3338.23,1.15384
3365.23,1.17324
3392.23,1.18721
3419.228,1.20147
3446.23,1.213324
3473.23,1.22518
3500.225,1.22977
3527.224,1.232
3554.223,1.24219
3581.222,1.20021
3608.22,1.09718
3635.22,0.846666
3662.219,0.547376
3689.218,0.362052
3716.217,0.28099
3743.216,0.248636
3770.215,0.2362699
3797.21,0.229788
3824.21,0.226605
3851.211,0.221569
3878.21,0.220458
3905.21,0.2190479
3932.208,0.219871
3959.208,0.2199805
3986.21,0.219409
4013.205,0.219371
4040.204,0.217323
4067.203,0.214848
4094.202,0.214316
4121.201,0.211529
4148.2,0.209084
4175.2,0.210218
4202.198,0.209796
4229.197,0.209719
4256.196,0.209489
4283.195,0.209716
4310.194,0.210471
4337.193,0.21292
4364.192,0.215174
4391.191,0.217597
4418.19,0.2183723
4445.189,0.2184254
4472.188,0.221744
4499.187,0.221364
4526.186,0.2230233
4553.185,0.2225554
4580.184,0.2217194
4607.183,0.219417
4634.182,0.219772
4661.181,0.221479
4688.18,0.2205634
4715.179,0.2212071
4742.178,0.22727
4769.177,0.224103
4796.18,0.225111
4823.175,0.228103
4850.174,0.228202
4877.173,0.229089
4904.17,0.231525
4931.17,0.231557
4958.169,0.232936
4985.168,0.237673
5012.167,0.2342755
5039.167,0.236539
5066.166,0.242405
5093.165,0.239148
5120.16,0.2437
5147.163,0.243208
5174.162,0.246242
5201.161,0.248312
5228.16,0.2477925
5255.158,0.241922
5282.16,0.241809
5309.156,0.238883
5336.155,0.244838
5363.154,0.240108
5390.153,0.239161
5417.15,0.240558
5444.151,0.241522
5471.15,0.242842
5498.149,0.238151
5525.148,0.2407137
5552.147,0.2421736
5579.146,0.241246
5606.145,0.242136
5633.144,0.2390129
5660.143,0.24094
5687.142,0.239205
5714.141,0.23873
5741.14,0.237657
5768.139,0.2352346
5795.14,0.238523
5822.137,0.234493
5849.14,0.241713
5876.135,0.239653
5903.134,0.236642
5930.13,0.237933
5957.132,0.237213
5984.13,0.2363309
6011.13,0.241204
6038.129,0.233408
6065.13,0.236646
6092.13,0.238227
6119.126,0.234633
6146.125,0.239789
6173.124,0.238758
6200.12,0.235441
6227.12,0.230468
6254.121,0.233251
6281.12,0.226172
6308.12,0.238929
6335.118,0.234758
6362.12,0.235756
6389.116,0.241323
6416.115,0.239782
6443.113,0.235238
6470.11,0.232649
6497.111,0.2443839
6524.11,0.2426249
6551.109,0.237804
6578.108,0.2342142
6605.107,0.233432
6632.106,0.243107
6659.105,0.236937
6686.104,0.243759
6713.104,0.238905
6740.102,0.2332573
6767.101,0.248941
6794.1,0.245116
6821.099,0.237224
6848.1,0.247802
6875.097,0.255251
6902.096,0.254309
6929.095,0.253975
6956.094,0.2564586
6983.09,0.259547
7010.092,0.262824
7037.09,0.262064
7064.09,0.257777
7091.089,0.265374
7118.09,0.272136
7145.09,0.2755075
7172.09,0.290927
7199.085,0.2622125
7226.084,0.266939
7253.08,0.282914
7280.08,0.274442
7307.081,0.268301
7334.08,0.274731
7361.08,0.273898
7388.078,0.2744103
7415.08,0.28613
7442.076,0.286947
7469.075,0.280411
7496.07,0.266478
7523.073,0.264386
7550.07,0.2902537
7577.071,0.277918
7604.07,0.2918509
7631.068,0.302151
7658.07,0.2953902
7685.066,0.278791
7712.065,0.314274
7739.064,0.331822
7766.063,0.2952781
7793.063,0.329279
7820.062,0.368622
7847.061,0.334455
7874.06,0.354559
7901.059,0.281523
7928.057,0.367163
7955.056,0.401843
7982.055,0.249491
8009.054,0.429322
8036.05,0.332538
8063.052,0.305642
8090.05,0.378967
8117.05,0.379122
8144.049,0.247619
8171.05,0.238275
8198.05,0.612609
8225.046,0.913528
8252.045,0.896415
8279.044,0.675806
8306.043,0.506817
8333.042,1.14023
8360.041,0.874612
8387.04,0.405906
8414.039,1.67787
8441.038,0.366075
8468.037,1.13309
8495.036,0.865046
8500.821,2.16813