File: Glass FTIR Baseline Share With Sarah 2023/Dans_Examples/CL05MI02.csv
449.3401,1.283671
476.3391,1.10976
503.3381,0.885967
530.3371,0.902789
557.3361,0.66334
584.335,1.05293
611.334,1.32574
638.333,1.90537
665.332,3.42557
692.3309,4.56872
719.33,3.4394
746.3289,3.02804
773.3279,2.66209
800.3269,2.753451
827.3259,2.56346
854.3248,2.731405
881.3238,2.88222
908.3228,3.19696
935.3218,3.6737
962.3207,4.74843
989.3197,5.53902
1016.319,5.84982
1043.318,3.519816
1070.317,3.76333
1097.316,3.81962
1124.315,3.19141
1151.31,3.03064
1178.313,2.95026
1205.312,3.02134
1232.31,2.39505
1259.31,1.6155
1286.308,1.23998
1313.307,1.01634
1340.307,0.9022162
1367.305,0.852913
1394.3,0.849037
1421.3,0.858555
1448.3,0.832192
1475.3,0.781555
1502.3,0.8018428
1529.299,0.8001128
1556.3,0.757838
1583.297,0.738403
1610.296,0.850759
1637.295,1.05293
1664.29,0.8632009
1691.293,0.664758
1718.29,0.58105
1745.29,0.546565
1772.29,0.52392
1799.289,0.503765
1826.29,0.4841
1853.287,0.4614808
1880.286,0.441431
1907.285,0.418527
1934.28,0.392299
1961.283,0.370008
1988.28,0.348689
2015.281,0.329881
2042.28,0.316398
2069.279,0.305235
2096.278,0.296297
2123.277,0.291162
2150.276,0.286734
2177.275,0.284803
2204.274,0.2861345
2231.27,0.2876268
2258.272,0.290586
2285.271,0.295022
2312.27,0.298026
2339.269,0.300924
2366.268,0.301616
2393.27,0.299934
2420.266,0.297376
2447.265,0.291977
2474.264,0.286345
2501.262,0.283113
2528.261,0.283265
2555.26,0.288785
2582.26,0.299711
2609.259,0.31529
2636.258,0.336537
2663.256,0.360996
2690.255,0.389285
2717.25,0.422054
2744.25,0.456909
2771.252,0.495704
2798.25,0.5385199
2825.25,0.583656
2852.25,0.632525
2879.248,0.686304
2906.25,0.742234
2933.25,0.8044359
2960.245,0.869809
2987.244,0.937146
3014.243,1.01044
3041.242,1.08688
3068.241,1.16507
3095.24,1.249795
3122.239,1.33861
3149.238,1.42709
3176.237,1.52657
3203.236,1.61469
3230.235,1.70615
3257.23,1.77895
3284.23,1.842
3311.232,1.94076
3338.23,2.022507
3365.23,2.08764
3392.23,2.16476
3419.228,2.20548
3446.23,2.26032
3473.23,2.3434
3500.225,2.36064
3527.224,2.36052
3554.223,2.32877
3581.222,2.22353
3608.22,1.87246
3635.22,1.296523
3662.219,0.750049
3689.218,0.447637
3716.217,0.318548
3743.216,0.267392
3770.215,0.251521
3797.21,0.241884
3824.21,0.237421
3851.211,0.231605
3878.21,0.229684
3905.21,0.2282616
3932.208,0.224857
3959.208,0.223338
3986.21,0.221495
4013.205,0.217824
4040.204,0.216314
4067.203,0.2121669
4094.202,0.207729
4121.201,0.206192
4148.2,0.20236
4175.2,0.200368
4202.198,0.19919
4229.197,0.196108
4256.196,0.196927
4283.195,0.196098
4310.194,0.196252
4337.193,0.198314
4364.192,0.200815
4391.191,0.2038531
4418.19,0.206617
4445.189,0.209465
4472.188,0.212354
4499.187,0.213664
4526.186,0.2122798
4553.185,0.2100819
4580.184,0.2077363
4607.183,0.208174
4634.182,0.2084982
4661.181,0.2099515
4688.18,0.2124007
4715.179,0.21454
4742.178,0.217975
4769.177,0.220672
4796.18,0.223587
4823.175,0.227195
4850.174,0.2301235
4877.173,0.233499
4904.17,0.237169
4931.17,0.241279
4958.169,0.245838
4985.168,0.249838
5012.167,0.253024
5039.167,0.25792
5066.166,0.262236
5093.165,0.265825
5120.16,0.269881
5147.163,0.275798
5174.162,0.280601
5201.161,0.283394
5228.16,0.287496
5255.158,0.285622
5282.16,0.285566
5309.156,0.286105
5336.155,0.2898195
5363.154,0.290128
5390.153,0.294359
5417.15,0.296436
5444.151,0.298907
5471.15,0.301241
5498.149,0.301582
5525.148,0.303897
5552.147,0.304831
5579.146,0.305781
5606.145,0.307304
5633.144,0.306678
5660.143,0.30861
5687.142,0.309905
5714.141,0.309861
5741.14,0.310253
5768.139,0.309948
5795.14,0.310026
5822.137,0.3107695
5849.14,0.310645
5876.135,0.310235
5903.134,0.309187
5930.13,0.309995
5957.132,0.3068037
5984.13,0.309499
6011.13,0.306673
6038.129,0.306026
6065.13,0.305735
6092.13,0.3034103
6119.126,0.302486
6146.125,0.304564
6173.124,0.302378
6200.12,0.299107
6227.12,0.301649
6254.121,0.298359
6281.12,0.29684
6308.12,0.295703
6335.118,0.296648
6362.12,0.295413
6389.116,0.294559
6416.115,0.295647
6443.113,0.293568
6470.11,0.294221
6497.111,0.293397
6524.11,0.2927376
6551.109,0.293179
6578.108,0.2987247
6605.107,0.297987
6632.106,0.299083
6659.105,0.296793
6686.104,0.296369
6713.104,0.301056
6740.102,0.302398
6767.101,0.3023039
6794.1,0.303675
6821.099,0.304666
6848.1,0.306244
6875.097,0.306632
6902.096,0.313634
6929.095,0.314974
6956.094,0.3182113
6983.09,0.322988
7010.092,0.321734
7037.09,0.329421
7064.09,0.334188
7091.089,0.334401
7118.09,0.335665
7145.09,0.3382882
7172.09,0.340096
7199.085,0.3484866
7226.084,0.3428077
7253.08,0.359936
7280.08,0.363026
7307.081,0.369438
7334.08,0.3693938
7361.08,0.376796
7388.078,0.386254
7415.08,0.382363
7442.076,0.379143
7469.075,0.395502
7496.07,0.399513
7523.073,0.4093169
7550.07,0.415462
7577.071,0.408009
7604.07,0.426278
7631.068,0.429187
7658.07,0.430538
7685.066,0.440107
7712.065,0.42114
7739.064,0.459992
7766.063,0.448871
7793.063,0.455921
7820.062,0.4735003
7847.061,0.4665342
7874.06,0.4712486
7901.059,0.507935
7928.057,0.513954
7955.056,0.496634
7982.055,0.5373816
8009.054,0.527032
8036.05,0.486991
8063.052,0.491423
8090.05,0.51846
8117.05,0.532458
8144.049,0.535007
8171.05,0.615257
8198.05,0.571915
8225.046,0.549816
8252.045,0.556262
8279.044,0.6013052
8306.043,0.590756
8333.042,0.653256
8360.041,0.636074
8387.04,0.875629
8414.039,0.996742
8441.038,1.31815
8468.037,1.15057
8495.036,0.848967
8500.821,0.5462117