File: Glass FTIR Baseline Share With Sarah 2023/Dans_Examples/CL05MI01.csv
449.3401,4.498231
476.3391,1.64813
503.3381,1.28371
530.3371,2.8142
557.3361,1.52673
584.335,2.289374
611.334,2.42364
638.333,3.77901
665.332,4.4533
692.3309,4.00843
719.33,3.988084
746.3289,3.22826
773.3279,3.73963
800.3269,3.3615
827.3259,3.67463
854.3248,3.73411
881.3238,3.32287
908.3228,3.529659
935.3218,4.702115
962.3207,5.62187
989.3197,4.607246
1016.319,4.7917
1043.318,4.15235
1070.317,3.50791
1097.316,5.13854
1124.315,3.309905
1151.31,3.71332
1178.313,4.045887
1205.312,3.85945
1232.31,2.9049
1259.31,2.08991
1286.308,1.51874
1313.307,1.224686
1340.307,1.06845
1367.305,0.982942
1394.3,0.952323
1421.3,0.950813
1448.3,0.932278
1475.3,0.896855
1502.3,0.921755
1529.299,0.932882
1556.3,0.919939
1583.297,0.952725
1610.296,1.205837
1637.295,1.60843
1664.29,1.28181
1691.293,0.932496
1718.29,0.806125
1745.29,0.750724
1772.29,0.7155675
1799.289,0.690117
1826.29,0.668022
1853.287,0.6484571
1880.286,0.629215
1907.285,0.608042
1934.28,0.5846768
1961.283,0.560913
1988.28,0.539811
2015.281,0.523211
2042.28,0.5108493
2069.279,0.501241
2096.278,0.493543
2123.277,0.486439
2150.276,0.481348
2177.275,0.479454
2204.274,0.4800577
2231.27,0.482396
2258.272,0.487267
2285.271,0.493135
2312.27,0.49848
2339.269,0.50329
2366.268,0.5050279
2393.27,0.510958
2420.266,0.507871
2447.265,0.502327
2474.264,0.495427
2501.262,0.490952
2528.261,0.490588
2555.26,0.4973848
2582.26,0.512151
2609.259,0.5340534
2636.258,0.5626381
2663.256,0.597868
2690.255,0.6393544
2717.25,0.68594
2744.25,0.7389177
2771.252,0.7975973
2798.25,0.862088
2825.25,0.9348429
2852.25,1.01109
2879.248,1.092905
2906.25,1.18459
2933.25,1.2768
2960.245,1.378469
2987.244,1.48755
3014.243,1.5966
3041.242,1.72146
3068.241,1.864228
3095.24,1.97464
3122.239,2.13579
3149.238,2.287454
3176.237,2.43399
3203.236,2.58159
3230.235,2.65824
3257.23,2.68299
3284.23,2.83649
3311.232,3.33515
3338.23,3.03712
3365.23,4.21101
3392.23,3.83814
3419.228,3.13936
3446.23,3.53319
3473.23,3.213298
3500.225,3.16587
3527.224,3.871959
3554.223,4.83461
3581.222,4.51487
3608.22,3.204445
3635.22,2.04504
3662.219,1.11414
3689.218,0.6237783
3716.217,0.424198
3743.216,0.350852
3770.215,0.3293363
3797.21,0.317833
3824.21,0.311437
3851.211,0.3072869
3878.21,0.306096
3905.21,0.305436
3932.208,0.304212
3959.208,0.303568
3986.21,0.302494
4013.205,0.300576
4040.204,0.298504
4067.203,0.296908
4094.202,0.295159
4121.201,0.292734
4148.2,0.291491
4175.2,0.2911522
4202.198,0.291846
4229.197,0.291714
4256.196,0.293556
4283.195,0.2945274
4310.194,0.297303
4337.193,0.301711
4364.192,0.307172
4391.191,0.312869
4418.19,0.3184896
4445.189,0.32361
4472.188,0.328502
4499.187,0.331732
4526.186,0.3325859
4553.185,0.330009
4580.184,0.32894
4607.183,0.329463
4634.182,0.328818
4661.181,0.3336155
4688.18,0.335891
4715.179,0.340194
4742.178,0.3428803
4769.177,0.347404
4796.18,0.350287
4823.175,0.3532248
4850.174,0.3551091
4877.173,0.3577287
4904.17,0.3616132
4931.17,0.365668
4958.169,0.369674
4985.168,0.373272
5012.167,0.376702
5039.167,0.382001
5066.166,0.386309
5093.165,0.390809
5120.16,0.396825
5147.163,0.401709
5174.162,0.406299
5201.161,0.408142
5228.16,0.4081804
5255.158,0.404404
5282.16,0.3990362
5309.156,0.395996
5336.155,0.396983
5363.154,0.396723
5390.153,0.397942
5417.15,0.396837
5444.151,0.397802
5471.15,0.399306
5498.149,0.399601
5525.148,0.399481
5552.147,0.400481
5579.146,0.402506
5606.145,0.402114
5633.144,0.4011754
5660.143,0.401213
5687.142,0.400181
5714.141,0.402367
5741.14,0.398033
5768.139,0.398288
5795.14,0.395202
5822.137,0.395208
5849.14,0.392653
5876.135,0.390626
5903.134,0.391522
5930.13,0.39157
5957.132,0.390438
5984.13,0.390596
6011.13,0.391904
6038.129,0.3921348
6065.13,0.390653
6092.13,0.39399
6119.126,0.392779
6146.125,0.3939994
6173.124,0.3899955
6200.12,0.389537
6227.12,0.390746
6254.121,0.38874
6281.12,0.3912502
6308.12,0.38712
6335.118,0.386415
6362.12,0.386953
6389.116,0.387477
6416.115,0.3892686
6443.113,0.388028
6470.11,0.392059
6497.111,0.393832
6524.11,0.3945555
6551.109,0.3974781
6578.108,0.402691
6605.107,0.402079
6632.106,0.408406
6659.105,0.402191
6686.104,0.407996
6713.104,0.4133909
6740.102,0.410559
6767.101,0.418253
6794.1,0.416909
6821.099,0.422925
6848.1,0.427992
6875.097,0.419061
6902.096,0.427188
6929.095,0.439158
6956.094,0.447405
6983.09,0.4451592
7010.092,0.459087
7037.09,0.4550903
7064.09,0.4533745
7091.089,0.46873
7118.09,0.463649
7145.09,0.471008
7172.09,0.4752053
7199.085,0.476278
7226.084,0.4747785
7253.08,0.483079
7280.08,0.480291
7307.081,0.494887
7334.08,0.499387
7361.08,0.4959
7388.078,0.494822
7415.08,0.506753
7442.076,0.52585
7469.075,0.502185
7496.07,0.539489
7523.073,0.5190156
7550.07,0.539641
7577.071,0.550962
7604.07,0.520864
7631.068,0.5454182
7658.07,0.5446755
7685.066,0.560502
7712.065,0.572115
7739.064,0.582942
7766.063,0.580675
7793.063,0.5770991
7820.062,0.601284
7847.061,0.597916
7874.06,0.620884
7901.059,0.604592
7928.057,0.648698
7955.056,0.674361
7982.055,0.66118
8009.054,0.58984
8036.05,0.597586
8063.052,0.645688
8090.05,0.649866
8117.05,0.610644
8144.049,0.725167
8171.05,0.7092872
8198.05,0.732971
8225.046,0.7326174
8252.045,0.706741
8279.044,0.7152034
8306.043,0.758273
8333.042,0.719621
8360.041,0.954937
8387.04,1.13449
8414.039,1.19063
8441.038,1.03279
8468.037,1.25763
8495.036,1.58593
8500.821,0.774918