File: Glass FTIR Baseline Share With Sarah 2023/Dans_Examples/CV04MI03.csv
449.3401,0.804911
476.3391,0.784152
503.3381,0.739204
530.3371,0.606618
557.3361,0.5288969
584.335,0.731973
611.334,1.0936
638.333,1.40325
665.332,1.67236
692.3309,1.69732
719.33,1.857852
746.3289,2.056294
773.3279,2.20818
800.3269,2.17601
827.3259,2.271566
854.3248,2.36424
881.3238,2.34706
908.3228,2.39148
935.3218,2.520476
962.3207,2.608337
989.3197,3.768888
1016.319,2.80738
1043.318,2.87866
1070.317,3.11224
1097.316,3.09505
1124.315,3.371
1151.31,3.120302
1178.313,3.19741
1205.312,3.59632
1232.31,1.58571
1259.31,0.960992
1286.308,0.71486
1313.307,0.584108
1340.307,0.515171
1367.305,0.499583
1394.3,0.541018
1421.3,0.6061351
1448.3,0.6060567
1475.3,0.560119
1502.3,0.612305
1529.299,0.5977337
1556.3,0.541514
1583.297,0.524331
1610.296,0.628622
1637.295,0.80199
1664.29,0.6387671
1691.293,0.465495
1718.29,0.402135
1745.29,0.3720163
1772.29,0.3549875
1799.289,0.339901
1826.29,0.324819
1853.287,0.3118905
1880.286,0.29784
1907.285,0.284586
1934.28,0.271407
1961.283,0.257747
1988.28,0.24549
2015.281,0.239187
2042.28,0.229908
2069.279,0.230109
2096.278,0.226343
2123.277,0.226988
2150.276,0.231724
2177.275,0.231205
2204.274,0.241867
2231.27,0.243694
2258.272,0.253644
2285.271,0.261335
2312.27,0.2622431
2339.269,0.269853
2366.268,0.264985
2393.27,0.2809003
2420.266,0.281596
2447.265,0.277538
2474.264,0.282345
2501.262,0.2767001
2528.261,0.2830855
2555.26,0.287352
2582.26,0.2924635
2609.259,0.307651
2636.258,0.3162126
2663.256,0.3331426
2690.255,0.3497842
2717.25,0.3670449
2744.25,0.390056
2771.252,0.411774
2798.25,0.4375057
2825.25,0.466394
2852.25,0.4981764
2879.248,0.532455
2906.25,0.571408
2933.25,0.613781
2960.245,0.658386
2987.244,0.70533
3014.243,0.756237
3041.242,0.815577
3068.241,0.877044
3095.24,0.9431658
3122.239,1.0145
3149.238,1.0886
3176.237,1.16693
3203.236,1.24517
3230.235,1.31737
3257.23,1.37857
3284.23,1.4409
3311.232,1.51005
3338.23,1.5963
3365.23,1.67901
3392.23,1.74235
3419.228,1.79359
3446.23,1.83935
3473.23,1.88354
3500.225,1.9115
3527.224,1.89182
3554.223,1.84889
3581.222,1.73388
3608.22,1.41075
3635.22,0.9481655
3662.219,0.525923
3689.218,0.300936
3716.217,0.209775
3743.216,0.1738568
3770.215,0.162211
3797.21,0.154931
3824.21,0.1485
3851.211,0.14379
3878.21,0.142009
3905.21,0.138184
3932.208,0.1371631
3959.208,0.133938
3986.21,0.132401
4013.205,0.131278
4040.204,0.127607
4067.203,0.1277023
4094.202,0.1245953
4121.201,0.1241822
4148.2,0.123831
4175.2,0.1210644
4202.198,0.124205
4229.197,0.123517
4256.196,0.126196
4283.195,0.128703
4310.194,0.1302909
4337.193,0.134726
4364.192,0.138081
4391.191,0.142539
4418.19,0.146343
4445.189,0.1495888
4472.188,0.152708
4499.187,0.154248
4526.186,0.153929
4553.185,0.15231
4580.184,0.150474
4607.183,0.1504038
4634.182,0.1486853
4661.181,0.149641
4688.18,0.1484621
4715.179,0.148281
4742.178,0.1483053
4769.177,0.146708
4796.18,0.148666
4823.175,0.147445
4850.174,0.146021
4877.173,0.146663
4904.17,0.145404
4931.17,0.145864
4958.169,0.145239
4985.168,0.145469
5012.167,0.147985
5039.167,0.146642
5066.166,0.1494187
5093.165,0.150261
5120.16,0.151625
5147.163,0.154886
5174.162,0.155999
5201.161,0.158367
5228.16,0.158854
5255.158,0.156688
5282.16,0.155602
5309.156,0.153839
5336.155,0.156439
5363.154,0.158079
5390.153,0.1584384
5417.15,0.1602924
5444.151,0.161534
5471.15,0.1619617
5498.149,0.161941
5525.148,0.164223
5552.147,0.163568
5579.146,0.163126
5606.145,0.1638258
5633.144,0.1636946
5660.143,0.163555
5687.142,0.163289
5714.141,0.161661
5741.14,0.162295
5768.139,0.161586
5795.14,0.161479
5822.137,0.158796
5849.14,0.157265
5876.135,0.158414
5903.134,0.155855
5930.13,0.155818
5957.132,0.1554472
5984.13,0.1535309
6011.13,0.153152
6038.129,0.152497
6065.13,0.152581
6092.13,0.152503
6119.126,0.151652
6146.125,0.153425
6173.124,0.152008
6200.12,0.1535451
6227.12,0.154944
6254.121,0.154024
6281.12,0.153979
6308.12,0.157635
6335.118,0.157822
6362.12,0.156623
6389.116,0.159543
6416.115,0.158772
6443.113,0.159018
6470.11,0.160412
6497.111,0.1637123
6524.11,0.162989
6551.109,0.163495
6578.108,0.165592
6605.107,0.165978
6632.106,0.167347
6659.105,0.166727
6686.104,0.166799
6713.104,0.1673675
6740.102,0.167164
6767.101,0.167048
6794.1,0.1676872
6821.099,0.171804
6848.1,0.173603
6875.097,0.174117
6902.096,0.1768043
6929.095,0.173625
6956.094,0.177261
6983.09,0.18064
7010.092,0.178321
7037.09,0.1791651
7064.09,0.183813
7091.089,0.187942
7118.09,0.186123
7145.09,0.1856995
7172.09,0.1841613
7199.085,0.189932
7226.084,0.194362
7253.08,0.195222
7280.08,0.195559
7307.081,0.193152
7334.08,0.199063
7361.08,0.2031387
7388.078,0.192948
7415.08,0.202415
7442.076,0.200936
7469.075,0.203686
7496.07,0.1987753
7523.073,0.211771
7550.07,0.2088903
7577.071,0.213889
7604.07,0.21182
7631.068,0.222052
7658.07,0.2208198
7685.066,0.228757
7712.065,0.225533
7739.064,0.228253
7766.063,0.2198447
7793.063,0.223409
7820.062,0.2396696
7847.061,0.243294
7874.06,0.228966
7901.059,0.234149
7928.057,0.236938
7955.056,0.249307
7982.055,0.237812
8009.054,0.24723
8036.05,0.234723
8063.052,0.2500766
8090.05,0.2606093
8117.05,0.269965
8144.049,0.247291
8171.05,0.285912
8198.05,0.2598012
8225.046,0.274851
8252.045,0.307171
8279.044,0.258795
8306.043,0.288213
8333.042,0.323304
8360.041,0.316621
8387.04,0.316569
8414.039,0.335081
8441.038,0.338787
8468.037,0.356518
8495.036,0.311223
8500.821,0.358994