File: Glass FTIR Baseline Share With Sarah 2023/Dans_Examples/FR02MI01.csv
449.3401,2.58038
476.3391,0.7179789
503.3381,0.721497
530.3371,0.560154
557.3361,0.278535
584.335,0.727903
611.334,1.85282
638.333,1.62385
665.332,2.22035
692.3309,3.096398
719.33,2.22229
746.3289,3.20525
773.3279,2.91364
800.3269,2.30586
827.3259,2.03375
854.3248,2.88389
881.3238,2.4259
908.3228,2.3354
935.3218,4.16399
962.3207,2.886312
989.3197,3.45423
1016.319,3.5367
1043.318,3.70902
1070.317,2.94985
1097.316,2.70175
1124.315,3.04114
1151.31,2.713208
1178.313,2.49111
1205.312,2.54961
1232.31,2.42309
1259.31,1.38703
1286.308,0.813868
1313.307,0.6160354
1340.307,0.5286795
1367.305,0.481304
1394.3,0.4612234
1421.3,0.4538
1448.3,0.4336914
1475.3,0.403761
1502.3,0.415534
1529.299,0.418325
1556.3,0.407118
1583.297,0.424431
1610.296,0.602736
1637.295,0.905051
1664.29,0.6229255
1691.293,0.401334
1718.29,0.330872
1745.29,0.3109637
1772.29,0.301612
1799.289,0.292648
1826.29,0.27696
1853.287,0.260893
1880.286,0.244279
1907.285,0.229759
1934.28,0.2107656
1961.283,0.1922703
1988.28,0.172941
2015.281,0.157742
2042.28,0.147431
2069.279,0.1406783
2096.278,0.136784
2123.277,0.133273
2150.276,0.131176
2177.275,0.1295164
2204.274,0.1295932
2231.27,0.129041
2258.272,0.130396
2285.271,0.131511
2312.27,0.12987
2339.269,0.127432
2366.268,0.125712
2393.27,0.129102
2420.266,0.125596
2447.265,0.122312
2474.264,0.118431
2501.262,0.1174409
2528.261,0.117602
2555.26,0.1233729
2582.26,0.130883
2609.259,0.1431607
2636.258,0.1581188
2663.256,0.173918
2690.255,0.1949275
2717.25,0.216612
2744.25,0.243596
2771.252,0.269472
2798.25,0.3009872
2825.25,0.333036
2852.25,0.3707547
2879.248,0.410692
2906.25,0.454533
2933.25,0.50307
2960.245,0.554221
2987.244,0.6125837
3014.243,0.672178
3041.242,0.7376491
3068.241,0.808468
3095.24,0.885743
3122.239,0.968769
3149.238,1.05078
3176.237,1.1461
3203.236,1.23085
3230.235,1.31686
3257.23,1.37786
3284.23,1.43283
3311.232,1.51681
3338.23,1.59543
3365.23,1.70905
3392.23,1.74065
3419.228,1.84365
3446.23,1.866611
3473.23,1.90047
3500.225,1.92148
3527.224,1.95832
3554.223,1.94795
3581.222,1.879734
3608.22,1.60152
3635.22,1.11735
3662.219,0.56834
3689.218,0.255453
3716.217,0.141458
3743.216,0.100367
3770.215,0.0867338
3797.21,0.0819241
3824.21,0.0787173
3851.211,0.077451
3878.21,0.0784597
3905.21,0.0791086
3932.208,0.0807471
3959.208,0.0832797
3986.21,0.0811258
4013.205,0.0833503
4040.204,0.0814841
4067.203,0.079595
4094.202,0.0783421
4121.201,0.0758446
4148.2,0.07674059
4175.2,0.0743012
4202.198,0.0772987
4229.197,0.0761896
4256.196,0.0779809
4283.195,0.0784144
4310.194,0.0813025
4337.193,0.0835098
4364.192,0.0850587
4391.191,0.09039065
4418.19,0.0964629
4445.189,0.09945
4472.188,0.0995921
4499.187,0.105279
4526.186,0.103062
4553.185,0.104472
4580.184,0.100983
4607.183,0.100419
4634.182,0.101961
4661.181,0.10565
4688.18,0.106759
4715.179,0.107165
4742.178,0.108636
4769.177,0.1121203
4796.18,0.1141502
4823.175,0.116154
4850.174,0.119823
4877.173,0.120091
4904.17,0.123342
4931.17,0.123795
4958.169,0.128992
4985.168,0.132292
5012.167,0.135161
5039.167,0.135354
5066.166,0.137713
5093.165,0.141336
5120.16,0.1433417
5147.163,0.148342
5174.162,0.1514503
5201.161,0.152616
5228.16,0.157748
5255.158,0.1521098
5282.16,0.1473078
5309.156,0.144268
5336.155,0.147978
5363.154,0.145983
5390.153,0.14429
5417.15,0.144952
5444.151,0.148125
5471.15,0.150037
5498.149,0.147022
5525.148,0.147739
5552.147,0.152444
5579.146,0.153349
5606.145,0.1505776
5633.144,0.152295
5660.143,0.152092
5687.142,0.148777
5714.141,0.150767
5741.14,0.152442
5768.139,0.148382
5795.14,0.150911
5822.137,0.148198
5849.14,0.149176
5876.135,0.150931
5903.134,0.150828
5930.13,0.150245
5957.132,0.147347
5984.13,0.146915
6011.13,0.146188
6038.129,0.148433
6065.13,0.1487549
6092.13,0.154776
6119.126,0.145659
6146.125,0.149914
6173.124,0.145483
6200.12,0.148312
6227.12,0.144468
6254.121,0.1480412
6281.12,0.1520078
6308.12,0.144244
6335.118,0.148699
6362.12,0.1456
6389.116,0.153003
6416.115,0.1554
6443.113,0.1483285
6470.11,0.151794
6497.111,0.151306
6524.11,0.15879
6551.109,0.151653
6578.108,0.150895
6605.107,0.156401
6632.106,0.157814
6659.105,0.152592
6686.104,0.1611639
6713.104,0.170114
6740.102,0.152101
6767.101,0.178822
6794.1,0.165105
6821.099,0.1766964
6848.1,0.158376
6875.097,0.181288
6902.096,0.174044
6929.095,0.178648
6956.094,0.17814
6983.09,0.187903
7010.092,0.187425
7037.09,0.190541
7064.09,0.18388
7091.089,0.2011345
7118.09,0.175718
7145.09,0.175595
7172.09,0.188711
7199.085,0.211857
7226.084,0.2085766
7253.08,0.1951885
7280.08,0.1977
7307.081,0.2142859
7334.08,0.1953676
7361.08,0.2025169
7388.078,0.191487
7415.08,0.212572
7442.076,0.2176834
7469.075,0.205928
7496.07,0.195661
7523.073,0.1939923
7550.07,0.229542
7577.071,0.225641
7604.07,0.238282
7631.068,0.266706
7658.07,0.192311
7685.066,0.182959
7712.065,0.250906
7739.064,0.216307
7766.063,0.229833
7793.063,0.269144
7820.062,0.280059
7847.061,0.244832
7874.06,0.228831
7901.059,0.229257
7928.057,0.3270434
7955.056,0.387081
7982.055,0.368594
8009.054,0.313647
8036.05,0.339307
8063.052,0.328439
8090.05,0.29935
8117.05,0.191532
8144.049,0.131886
8171.05,0.357605
8198.05,0.0487008
8225.046,0.177549
8252.045,0.393424
8279.044,1.14684
8306.043,0.831696
8333.042,0.822066
8360.041,0.703318
8387.04,-0.290118
8414.039,0.25091
8441.038,1.24888
8468.037,2.01937
8495.036,4.027725
8500.821,4.01193