File: Glass FTIR Baseline Share With Sarah 2023/Dans_Examples/FR04MI01.csv
449.3401,2.02195
476.3391,0.37763
503.3381,2.92927
530.3371,3.35418
557.3361,1.4753
584.335,0.03966444
611.334,1.7112
638.333,1.86096
665.332,0.9613701
692.3309,2.0401
719.33,2.14893
746.3289,1.35866
773.3279,1.46079
800.3269,1.54401
827.3259,1.54759
854.3248,1.606
881.3238,2.20779
908.3228,2.38176
935.3218,1.6884
962.3207,2.03964
989.3197,2.17467
1016.319,2.099566
1043.318,2.28863
1070.317,2.8339
1097.316,2.41267
1124.315,2.03194
1151.31,2.123967
1178.313,1.99662
1205.312,1.94987
1232.31,1.51774
1259.31,1.00493
1286.308,0.710875
1313.307,0.543606
1340.307,0.446377
1367.305,0.409883
1394.3,0.4056559
1421.3,0.416512
1448.3,0.403179
1475.3,0.379938
1502.3,0.393999
1529.299,0.405892
1556.3,0.3786235
1583.297,0.374954
1610.296,0.4522706
1637.295,0.601571
1664.29,0.490423
1691.293,0.3730322
1718.29,0.329773
1745.29,0.324386
1772.29,0.319746
1799.289,0.302688
1826.29,0.2983734
1853.287,0.283369
1880.286,0.280055
1907.285,0.267812
1934.28,0.258176
1961.283,0.247123
1988.28,0.236421
2015.281,0.233632
2042.28,0.222117
2069.279,0.225906
2096.278,0.2203767
2123.277,0.223107
2150.276,0.225361
2177.275,0.224351
2204.274,0.232786
2231.27,0.234689
2258.272,0.238622
2285.271,0.243609
2312.27,0.241803
2339.269,0.2491434
2366.268,0.2486983
2393.27,0.2520052
2420.266,0.250324
2447.265,0.245675
2474.264,0.245438
2501.262,0.242376
2528.261,0.24156
2555.26,0.248883
2582.26,0.2515805
2609.259,0.262651
2636.258,0.27546
2663.256,0.2876987
2690.255,0.306893
2717.25,0.32139
2744.25,0.341119
2771.252,0.367866
2798.25,0.386766
2825.25,0.416199
2852.25,0.438435
2879.248,0.4755088
2906.25,0.511694
2933.25,0.542704
2960.245,0.582922
2987.244,0.622569
3014.243,0.660942
3041.242,0.7149736
3068.241,0.759477
3095.24,0.812174
3122.239,0.869357
3149.238,0.913376
3176.237,0.9937293
3203.236,1.051086
3230.235,1.10374
3257.23,1.14204
3284.23,1.21422
3311.232,1.2579
3338.23,1.30606
3365.23,1.38589
3392.23,1.45284
3419.228,1.45801
3446.23,1.489812
3473.23,1.55749
3500.225,1.46571
3527.224,1.62535
3554.223,1.518953
3581.222,1.49001
3608.22,1.29974
3635.22,0.919023
3662.219,0.554692
3689.218,0.35528
3716.217,0.266825
3743.216,0.2393784
3770.215,0.2203973
3797.21,0.220401
3824.21,0.22275
3851.211,0.213096
3878.21,0.221845
3905.21,0.2161045
3932.208,0.224014
3959.208,0.219756
3986.21,0.21746
4013.205,0.223779
4040.204,0.219292
4067.203,0.219056
4094.202,0.22355
4121.201,0.2169204
4148.2,0.22328
4175.2,0.21957
4202.198,0.22146
4229.197,0.2207993
4256.196,0.2201594
4283.195,0.225636
4310.194,0.226804
4337.193,0.2328789
4364.192,0.236455
4391.191,0.236797
4418.19,0.240872
4445.189,0.241719
4472.188,0.245626
4499.187,0.246355
4526.186,0.245948
4553.185,0.2492399
4580.184,0.248713
4607.183,0.248359
4634.182,0.2472967
4661.181,0.252277
4688.18,0.251462
4715.179,0.257316
4742.178,0.2546439
4769.177,0.2595015
4796.18,0.2571504
4823.175,0.25971
4850.174,0.259834
4877.173,0.26278
4904.17,0.2698438
4931.17,0.273619
4958.169,0.2713055
4985.168,0.28055
5012.167,0.27256
5039.167,0.276914
5066.166,0.276444
5093.165,0.271857
5120.16,0.284101
5147.163,0.278495
5174.162,0.283726
5201.161,0.292764
5228.16,0.2787777
5255.158,0.282169
5282.16,0.280498
5309.156,0.2808232
5336.155,0.2878429
5363.154,0.284741
5390.153,0.28763
5417.15,0.286757
5444.151,0.289229
5471.15,0.274835
5498.149,0.290193
5525.148,0.2903631
5552.147,0.288882
5579.146,0.284358
5606.145,0.288644
5633.144,0.293162
5660.143,0.2819805
5687.142,0.288249
5714.141,0.291707
5741.14,0.28536
5768.139,0.2827632
5795.14,0.286362
5822.137,0.286527
5849.14,0.272336
5876.135,0.284032
5903.134,0.2792943
5930.13,0.272747
5957.132,0.289952
5984.13,0.277023
6011.13,0.275824
6038.129,0.273171
6065.13,0.283857
6092.13,0.2742484
6119.126,0.275662
6146.125,0.26625
6173.124,0.262143
6200.12,0.28853
6227.12,0.277301
6254.121,0.2820411
6281.12,0.273269
6308.12,0.279392
6335.118,0.260643
6362.12,0.293039
6389.116,0.288429
6416.115,0.259752
6443.113,0.270335
6470.11,0.284847
6497.111,0.2652195
6524.11,0.304579
6551.109,0.291255
6578.108,0.293657
6605.107,0.2936757
6632.106,0.2882171
6659.105,0.286711
6686.104,0.293005
6713.104,0.278406
6740.102,0.274846
6767.101,0.2738235
6794.1,0.279296
6821.099,0.293228
6848.1,0.295349
6875.097,0.304486
6902.096,0.299799
6929.095,0.316249
6956.094,0.283691
6983.09,0.2885544
7010.092,0.297835
7037.09,0.292222
7064.09,0.2887252
7091.089,0.318006
7118.09,0.348061
7145.09,0.3329443
7172.09,0.337301
7199.085,0.346908
7226.084,0.2830227
7253.08,0.298189
7280.08,0.340111
7307.081,0.312991
7334.08,0.32452
7361.08,0.320408
7388.078,0.355941
7415.08,0.345857
7442.076,0.3284339
7469.075,0.279133
7496.07,0.373703
7523.073,0.372791
7550.07,0.372249
7577.071,0.313269
7604.07,0.426492
7631.068,0.497366
7658.07,0.346783
7685.066,0.352669
7712.065,0.585991
7739.064,0.350582
7766.063,0.28577
7793.063,0.6140619
7820.062,1.720549
7847.061,0.426464
7874.06,0.417989
7901.059,0.810735
7928.057,1.43681
7955.056,1.29045
7982.055,0.774717
8009.054,1.21026
8036.05,0.781405
8063.052,1.3762
8090.05,1.06295
8117.05,0.549454
8144.049,1.02704
8171.05,0.899468
8198.05,1.05545
8225.046,1.4448
8252.045,1.59358
8279.044,1.76178
8306.043,1.59877
8333.042,0.781079
8360.041,1.497
8387.04,2.30138
8414.039,0.976298
8441.038,2.30869
8468.037,2.03483
8495.036,1.38623
8500.821,1.56611